PE IR       SUBTECH     SPECTRUM    ASCII       PEDS        4.00        
   -1
BH1 8-1 3 90_1.asc
24/05/15
17:27:10.00
24/05/15
17:27:28.00
Administrator
?品 136 用? Administrator 日期 Wednesday, May 15 2024
550.000000
#HDR
-1
-1
#GR
cm-1
%T
1.0
0.0
4000.000000
-1.000000
3451
8
100.100764
90.223145
#DATA
4000.000000	99.977229
3999.000000	99.979010
3998.000000	99.981642
3997.000000	99.984719
3996.000000	99.987122
3995.000000	99.988023
3994.000000	99.986973
3993.000000	99.983650
3992.000000	99.978219
3991.000000	99.971815
3990.000000	99.966133
3989.000000	99.962369
3988.000000	99.960776
3987.000000	99.961246
3986.000000	99.963968
3985.000000	99.969088
3984.000000	99.975719
3983.000000	99.981842
3982.000000	99.985677
3981.000000	99.987038
3980.000000	99.987139
3979.000000	99.987012
3978.000000	99.986375
3977.000000	99.984175
3976.000000	99.979867
3975.000000	99.973837
3974.000000	99.966885
3973.000000	99.959809
3972.000000	99.953588
3971.000000	99.949467
3970.000000	99.948476
3969.000000	99.950698
3968.000000	99.954974
3967.000000	99.959326
3966.000000	99.961831
3965.000000	99.961546
3964.000000	99.958981
3963.000000	99.955780
3962.000000	99.953609
3961.000000	99.953011
3960.000000	99.953204
3959.000000	99.952843
3958.000000	99.951100
3957.000000	99.948204
3956.000000	99.945277
3955.000000	99.943700
3954.000000	99.944332
3953.000000	99.947126
3952.000000	99.951180
3951.000000	99.955282
3950.000000	99.958692
3949.000000	99.961502
3948.000000	99.964145
3947.000000	99.966425
3946.000000	99.967255
3945.000000	99.965620
3944.000000	99.961891
3943.000000	99.957991
3942.000000	99.955966
3941.000000	99.956368
3940.000000	99.958005
3939.000000	99.958904
3938.000000	99.957690
3937.000000	99.954358
3936.000000	99.950030
3935.000000	99.946128
3934.000000	99.943569
3933.000000	99.942751
3932.000000	99.943956
3931.000000	99.947488
3930.000000	99.953155
3929.000000	99.959746
3928.000000	99.965410
3927.000000	99.968862
3926.000000	99.970280
3925.000000	99.970830
3924.000000	99.971357
3923.000000	99.972023
3922.000000	99.973086
3921.000000	99.975024
3920.000000	99.977685
3919.000000	99.979719
3918.000000	99.979532
3917.000000	99.976768
3916.000000	99.972576
3915.000000	99.968536
3914.000000	99.965655
3913.000000	99.964195
3912.000000	99.964044
3911.000000	99.964849
3910.000000	99.966217
3909.000000	99.967844
3908.000000	99.969637
3907.000000	99.971792
3906.000000	99.974645
3905.000000	99.978241
3904.000000	99.981684
3903.000000	99.983392
3902.000000	99.982486
3901.000000	99.979599
3900.000000	99.976290
3899.000000	99.973709
3898.000000	99.972093
3897.000000	99.971433
3896.000000	99.971910
3895.000000	99.973501
3894.000000	99.975676
3893.000000	99.977656
3892.000000	99.978986
3891.000000	99.979592
3890.000000	99.979411
3889.000000	99.978336
3888.000000	99.976549
3887.000000	99.974819
3886.000000	99.974042
3885.000000	99.974297
3884.000000	99.974781
3883.000000	99.974732
3882.000000	99.974179
3881.000000	99.973774
3880.000000	99.973988
3879.000000	99.974602
3878.000000	99.975057
3877.000000	99.975088
3876.000000	99.974943
3875.000000	99.975105
3874.000000	99.975671
3873.000000	99.976057
3872.000000	99.975623
3871.000000	99.974512
3870.000000	99.973686
3869.000000	99.973656
3868.000000	99.973962
3867.000000	99.973920
3866.000000	99.973406
3865.000000	99.972838
3864.000000	99.972586
3863.000000	99.972585
3862.000000	99.972624
3861.000000	99.972667
3860.000000	99.972933
3859.000000	99.973605
3858.000000	99.974579
3857.000000	99.975518
3856.000000	99.976177
3855.000000	99.976662
3854.000000	99.977367
3853.000000	99.978061
3852.000000	99.978147
3851.000000	99.977593
3850.000000	99.976709
3849.000000	99.975761
3848.000000	99.975011
3847.000000	99.974717
3846.000000	99.975058
3845.000000	99.975912
3844.000000	99.976815
3843.000000	99.977242
3842.000000	99.976959
3841.000000	99.976123
3840.000000	99.975276
3839.000000	99.975041
3838.000000	99.975744
3837.000000	99.977353
3836.000000	99.979569
3835.000000	99.981945
3834.000000	99.983941
3833.000000	99.984967
3832.000000	99.984540
3831.000000	99.982635
3830.000000	99.979967
3829.000000	99.977774
3828.000000	99.977055
3827.000000	99.977876
3826.000000	99.979225
3825.000000	99.979691
3824.000000	99.978621
3823.000000	99.976598
3822.000000	99.975139
3821.000000	99.975150
3820.000000	99.975843
3819.000000	99.976088
3818.000000	99.975901
3817.000000	99.976065
3816.000000	99.976646
3815.000000	99.976584
3814.000000	99.975207
3813.000000	99.973143
3812.000000	99.971489
3811.000000	99.970625
3810.000000	99.970077
3809.000000	99.969414
3808.000000	99.969050
3807.000000	99.969594
3806.000000	99.970604
3805.000000	99.970743
3804.000000	99.969257
3803.000000	99.966808
3802.000000	99.964887
3801.000000	99.963739
3800.000000	99.962091
3799.000000	99.959230
3798.000000	99.955912
3797.000000	99.953619
3796.000000	99.953114
3795.000000	99.953916
3794.000000	99.955124
3793.000000	99.956264
3792.000000	99.957259
3791.000000	99.958086
3790.000000	99.958675
3789.000000	99.958919
3788.000000	99.958695
3787.000000	99.958177
3786.000000	99.958162
3785.000000	99.959652
3784.000000	99.962810
3783.000000	99.966547
3782.000000	99.969234
3781.000000	99.969773
3780.000000	99.968391
3779.000000	99.966460
3778.000000	99.965536
3777.000000	99.966296
3776.000000	99.968309
3775.000000	99.970423
3774.000000	99.971533
3773.000000	99.971377
3772.000000	99.970805
3771.000000	99.970969
3770.000000	99.971782
3769.000000	99.971694
3768.000000	99.969632
3767.000000	99.966554
3766.000000	99.964682
3765.000000	99.965247
3764.000000	99.967230
3763.000000	99.968446
3762.000000	99.967633
3761.000000	99.965332
3760.000000	99.963453
3759.000000	99.963776
3758.000000	99.966734
3757.000000	99.971277
3756.000000	99.975868
3755.000000	99.979843
3754.000000	99.983522
3753.000000	99.986803
3752.000000	99.988027
3751.000000	99.985688
3750.000000	99.981155
3749.000000	99.977335
3748.000000	99.974787
3747.000000	99.972336
3746.000000	99.970205
3745.000000	99.970163
3744.000000	99.971981
3743.000000	99.973523
3742.000000	99.974101
3741.000000	99.974556
3740.000000	99.975533
3739.000000	99.976313
3738.000000	99.975354
3737.000000	99.971962
3736.000000	99.966832
3735.000000	99.961305
3734.000000	99.956723
3733.000000	99.954422
3732.000000	99.954869
3731.000000	99.956894
3730.000000	99.958600
3729.000000	99.959056
3728.000000	99.958758
3727.000000	99.958458
3726.000000	99.957598
3725.000000	99.954705
3724.000000	99.949325
3723.000000	99.942827
3722.000000	99.937181
3721.000000	99.933198
3720.000000	99.930482
3719.000000	99.928682
3718.000000	99.928456
3717.000000	99.930783
3716.000000	99.935373
3715.000000	99.940368
3714.000000	99.943290
3713.000000	99.942558
3712.000000	99.938936
3711.000000	99.934793
3710.000000	99.931564
3709.000000	99.928798
3708.000000	99.925762
3707.000000	99.922561
3706.000000	99.919326
3705.000000	99.915325
3704.000000	99.909512
3703.000000	99.902130
3702.000000	99.895495
3701.000000	99.892097
3700.000000	99.892176
3699.000000	99.893894
3698.000000	99.895217
3697.000000	99.895290
3696.000000	99.894342
3695.000000	99.893172
3694.000000	99.892627
3693.000000	99.892703
3692.000000	99.892316
3691.000000	99.890651
3690.000000	99.888913
3689.000000	99.889076
3688.000000	99.890990
3687.000000	99.892228
3686.000000	99.890531
3685.000000	99.885827
3684.000000	99.879766
3683.000000	99.873572
3682.000000	99.867140
3681.000000	99.860437
3680.000000	99.854370
3679.000000	99.850219
3678.000000	99.849158
3677.000000	99.852305
3676.000000	99.858719
3675.000000	99.862705
3674.000000	99.859191
3673.000000	99.849136
3672.000000	99.837827
3671.000000	99.830045
3670.000000	99.825312
3669.000000	99.818393
3668.000000	99.806779
3667.000000	99.793495
3666.000000	99.782531
3665.000000	99.775074
3664.000000	99.769727
3663.000000	99.764915
3662.000000	99.760485
3661.000000	99.756735
3660.000000	99.752527
3659.000000	99.746013
3658.000000	99.737237
3657.000000	99.729532
3656.000000	99.726236
3655.000000	99.726596
3654.000000	99.726863
3653.000000	99.724350
3652.000000	99.719733
3651.000000	99.715899
3650.000000	99.714186
3649.000000	99.711912
3648.000000	99.706526
3647.000000	99.699163
3646.000000	99.691357
3645.000000	99.682653
3644.000000	99.672434
3643.000000	99.661572
3642.000000	99.651433
3641.000000	99.641824
3640.000000	99.631440
3639.000000	99.620601
3638.000000	99.611518
3637.000000	99.605557
3636.000000	99.601612
3635.000000	99.597862
3634.000000	99.593765
3633.000000	99.589493
3632.000000	99.585114
3631.000000	99.581723
3630.000000	99.582179
3629.000000	99.587099
3628.000000	99.590540
3627.000000	99.587182
3626.000000	99.579069
3625.000000	99.571929
3624.000000	99.569736
3623.000000	99.572461
3622.000000	99.577775
3621.000000	99.584664
3620.000000	99.594668
3619.000000	99.608439
3618.000000	99.622623
3617.000000	99.632186
3616.000000	99.634448
3615.000000	99.630583
3614.000000	99.624411
3613.000000	99.619481
3612.000000	99.617042
3611.000000	99.616929
3610.000000	99.618927
3609.000000	99.622642
3608.000000	99.626831
3607.000000	99.629872
3606.000000	99.631243
3605.000000	99.631679
3604.000000	99.632230
3603.000000	99.633902
3602.000000	99.637609
3601.000000	99.643507
3600.000000	99.650150
3599.000000	99.655583
3598.000000	99.659331
3597.000000	99.662694
3596.000000	99.666833
3595.000000	99.671378
3594.000000	99.674723
3593.000000	99.675599
3592.000000	99.674132
3591.000000	99.671741
3590.000000	99.670675
3589.000000	99.673189
3588.000000	99.679187
3587.000000	99.684426
3586.000000	99.684166
3585.000000	99.678205
3584.000000	99.670206
3583.000000	99.663831
3582.000000	99.660063
3581.000000	99.657740
3580.000000	99.655394
3579.000000	99.652461
3578.000000	99.649155
3577.000000	99.645960
3576.000000	99.643612
3575.000000	99.643005
3574.000000	99.644418
3573.000000	99.646555
3572.000000	99.647198
3571.000000	99.645306
3570.000000	99.642408
3569.000000	99.641480
3568.000000	99.643638
3567.000000	99.646092
3566.000000	99.645264
3565.000000	99.641408
3564.000000	99.637439
3563.000000	99.634819
3562.000000	99.632733
3561.000000	99.630345
3560.000000	99.628359
3559.000000	99.627947
3558.000000	99.629074
3557.000000	99.630568
3556.000000	99.631559
3555.000000	99.632322
3554.000000	99.633889
3553.000000	99.636873
3552.000000	99.640433
3551.000000	99.642628
3550.000000	99.642182
3549.000000	99.639800
3548.000000	99.637709
3547.000000	99.637616
3546.000000	99.638973
3545.000000	99.639565
3544.000000	99.637755
3543.000000	99.633744
3542.000000	99.629127
3541.000000	99.625545
3540.000000	99.623556
3539.000000	99.622243
3538.000000	99.620004
3537.000000	99.616263
3536.000000	99.612286
3535.000000	99.609797
3534.000000	99.608835
3533.000000	99.607768
3532.000000	99.605563
3531.000000	99.603467
3530.000000	99.603868
3529.000000	99.607706
3528.000000	99.613590
3527.000000	99.619460
3526.000000	99.624471
3525.000000	99.628647
3524.000000	99.631490
3523.000000	99.632035
3522.000000	99.630363
3521.000000	99.628141
3520.000000	99.627121
3519.000000	99.627569
3518.000000	99.628365
3517.000000	99.628364
3516.000000	99.627132
3515.000000	99.624537
3514.000000	99.620237
3513.000000	99.614112
3512.000000	99.607127
3511.000000	99.601375
3510.000000	99.598808
3509.000000	99.599782
3508.000000	99.602824
3507.000000	99.605867
3506.000000	99.607884
3505.000000	99.609358
3504.000000	99.611195
3503.000000	99.613346
3502.000000	99.614773
3501.000000	99.614760
3500.000000	99.613816
3499.000000	99.613148
3498.000000	99.613484
3497.000000	99.614434
3496.000000	99.614970
3495.000000	99.614609
3494.000000	99.614127
3493.000000	99.614882
3492.000000	99.617268
3491.000000	99.620029
3490.000000	99.621363
3489.000000	99.620741
3488.000000	99.619218
3487.000000	99.618048
3486.000000	99.617468
3485.000000	99.617120
3484.000000	99.617053
3483.000000	99.617616
3482.000000	99.618521
3481.000000	99.618777
3480.000000	99.617784
3479.000000	99.615999
3478.000000	99.614341
3477.000000	99.613287
3476.000000	99.612754
3475.000000	99.612575
3474.000000	99.612738
3473.000000	99.613176
3472.000000	99.613502
3471.000000	99.613120
3470.000000	99.611728
3469.000000	99.609735
3468.000000	99.608098
3467.000000	99.607513
3466.000000	99.607702
3465.000000	99.607712
3464.000000	99.606864
3463.000000	99.605340
3462.000000	99.603841
3461.000000	99.602783
3460.000000	99.601914
3459.000000	99.600686
3458.000000	99.598894
3457.000000	99.596963
3456.000000	99.595545
3455.000000	99.594826
3454.000000	99.594297
3453.000000	99.593266
3452.000000	99.591495
3451.000000	99.589245
3450.000000	99.586922
3449.000000	99.584902
3448.000000	99.583567
3447.000000	99.583080
3446.000000	99.583011
3445.000000	99.582524
3444.000000	99.581220
3443.000000	99.579570
3442.000000	99.578396
3441.000000	99.578027
3440.000000	99.578128
3439.000000	99.578209
3438.000000	99.578068
3437.000000	99.577757
3436.000000	99.577314
3435.000000	99.576640
3434.000000	99.575591
3433.000000	99.574135
3432.000000	99.572428
3431.000000	99.570784
3430.000000	99.569535
3429.000000	99.568857
3428.000000	99.568680
3427.000000	99.568689
3426.000000	99.568439
3425.000000	99.567641
3424.000000	99.566366
3423.000000	99.565041
3422.000000	99.564107
3421.000000	99.563639
3420.000000	99.563393
3419.000000	99.563164
3418.000000	99.562982
3417.000000	99.562899
3416.000000	99.562798
3415.000000	99.562492
3414.000000	99.561954
3413.000000	99.561356
3412.000000	99.560922
3411.000000	99.560778
3410.000000	99.560921
3409.000000	99.561223
3408.000000	99.561475
3407.000000	99.561505
3406.000000	99.561308
3405.000000	99.561036
3404.000000	99.560846
3403.000000	99.560744
3402.000000	99.560590
3401.000000	99.560263
3400.000000	99.559801
3399.000000	99.559390
3398.000000	99.559239
3397.000000	99.559392
3396.000000	99.559606
3395.000000	99.559520
3394.000000	99.559025
3393.000000	99.558462
3392.000000	99.558368
3391.000000	99.558970
3390.000000	99.559970
3389.000000	99.560803
3388.000000	99.561151
3387.000000	99.561162
3386.000000	99.561185
3385.000000	99.561272
3384.000000	99.560999
3383.000000	99.559913
3382.000000	99.558193
3381.000000	99.556754
3380.000000	99.556520
3379.000000	99.557728
3378.000000	99.559867
3377.000000	99.562133
3376.000000	99.563944
3375.000000	99.565094
3374.000000	99.565599
3373.000000	99.565507
3372.000000	99.564772
3371.000000	99.563319
3370.000000	99.561271
3369.000000	99.559101
3368.000000	99.557402
3367.000000	99.556429
3366.000000	99.555965
3365.000000	99.555713
3364.000000	99.555709
3363.000000	99.556199
3362.000000	99.557266
3361.000000	99.558775
3360.000000	99.560574
3359.000000	99.562443
3358.000000	99.563922
3357.000000	99.564557
3356.000000	99.564505
3355.000000	99.564654
3354.000000	99.565769
3353.000000	99.567589
3352.000000	99.568954
3351.000000	99.568906
3350.000000	99.567491
3349.000000	99.565644
3348.000000	99.564487
3347.000000	99.564574
3346.000000	99.565679
3345.000000	99.567083
3344.000000	99.568175
3343.000000	99.568934
3342.000000	99.569740
3341.000000	99.570720
3340.000000	99.571435
3339.000000	99.571340
3338.000000	99.570366
3337.000000	99.568986
3336.000000	99.567841
3335.000000	99.567359
3334.000000	99.567629
3333.000000	99.568441
3332.000000	99.569403
3331.000000	99.570212
3330.000000	99.570835
3329.000000	99.571400
3328.000000	99.571996
3327.000000	99.572645
3326.000000	99.573397
3325.000000	99.574300
3324.000000	99.575306
3323.000000	99.576271
3322.000000	99.577044
3321.000000	99.577505
3320.000000	99.577596
3319.000000	99.577428
3318.000000	99.577340
3317.000000	99.577665
3316.000000	99.578396
3315.000000	99.579128
3314.000000	99.579442
3313.000000	99.579311
3312.000000	99.579102
3311.000000	99.579223
3310.000000	99.579785
3309.000000	99.580653
3308.000000	99.581614
3307.000000	99.582494
3306.000000	99.583201
3305.000000	99.583746
3304.000000	99.584232
3303.000000	99.584759
3302.000000	99.585356
3301.000000	99.586011
3300.000000	99.586718
3299.000000	99.587440
3298.000000	99.588081
3297.000000	99.588527
3296.000000	99.588748
3295.000000	99.588840
3294.000000	99.588987
3293.000000	99.589361
3292.000000	99.590012
3291.000000	99.590843
3290.000000	99.591690
3289.000000	99.592438
3288.000000	99.593056
3287.000000	99.593582
3286.000000	99.594104
3285.000000	99.594721
3284.000000	99.595465
3283.000000	99.596257
3282.000000	99.596976
3281.000000	99.597578
3280.000000	99.598112
3279.000000	99.598633
3278.000000	99.599135
3277.000000	99.599587
3276.000000	99.599994
3275.000000	99.600384
3274.000000	99.600788
3273.000000	99.601249
3272.000000	99.601823
3271.000000	99.602546
3270.000000	99.603370
3269.000000	99.604179
3268.000000	99.604896
3267.000000	99.605544
3266.000000	99.606200
3265.000000	99.606879
3264.000000	99.607491
3263.000000	99.607950
3262.000000	99.608281
3261.000000	99.608641
3260.000000	99.609174
3259.000000	99.609886
3258.000000	99.610594
3257.000000	99.611078
3256.000000	99.611290
3255.000000	99.611440
3254.000000	99.611810
3253.000000	99.612462
3252.000000	99.613222
3251.000000	99.613960
3250.000000	99.614742
3249.000000	99.615607
3248.000000	99.616369
3247.000000	99.616795
3246.000000	99.616950
3245.000000	99.617263
3244.000000	99.618090
3243.000000	99.619306
3242.000000	99.620422
3241.000000	99.621120
3240.000000	99.621516
3239.000000	99.621932
3238.000000	99.622591
3237.000000	99.623585
3236.000000	99.624989
3235.000000	99.626823
3234.000000	99.628910
3233.000000	99.630902
3232.000000	99.632470
3231.000000	99.633419
3230.000000	99.633649
3229.000000	99.633195
3228.000000	99.632384
3227.000000	99.631833
3226.000000	99.632071
3225.000000	99.633067
3224.000000	99.634078
3223.000000	99.634116
3222.000000	99.632785
3221.000000	99.630793
3220.000000	99.629538
3219.000000	99.629915
3218.000000	99.631587
3217.000000	99.633382
3216.000000	99.634378
3215.000000	99.634553
3214.000000	99.634446
3213.000000	99.634559
3212.000000	99.635233
3211.000000	99.636779
3210.000000	99.639345
3209.000000	99.642659
3208.000000	99.646083
3207.000000	99.649035
3206.000000	99.651254
3205.000000	99.652577
3204.000000	99.652705
3203.000000	99.651506
3202.000000	99.649574
3201.000000	99.648127
3200.000000	99.647974
3199.000000	99.648777
3198.000000	99.649586
3197.000000	99.649945
3196.000000	99.650203
3195.000000	99.650793
3194.000000	99.651630
3193.000000	99.652368
3192.000000	99.652917
3191.000000	99.653513
3190.000000	99.654427
3189.000000	99.655759
3188.000000	99.657324
3187.000000	99.658639
3186.000000	99.659240
3185.000000	99.659169
3184.000000	99.659090
3183.000000	99.659675
3182.000000	99.660913
3181.000000	99.662266
3180.000000	99.663368
3179.000000	99.664360
3178.000000	99.665450
3177.000000	99.666522
3176.000000	99.667339
3175.000000	99.667933
3174.000000	99.668612
3173.000000	99.669623
3172.000000	99.670903
3171.000000	99.672147
3170.000000	99.673102
3169.000000	99.673779
3168.000000	99.674474
3167.000000	99.675532
3166.000000	99.677038
3165.000000	99.678712
3164.000000	99.680127
3163.000000	99.681056
3162.000000	99.681553
3161.000000	99.681829
3160.000000	99.682129
3159.000000	99.682632
3158.000000	99.683337
3157.000000	99.684102
3156.000000	99.684858
3155.000000	99.685746
3154.000000	99.686906
3153.000000	99.688172
3152.000000	99.689170
3151.000000	99.689740
3150.000000	99.690077
3149.000000	99.690423
3148.000000	99.690806
3147.000000	99.691214
3146.000000	99.691839
3145.000000	99.692887
3144.000000	99.694227
3143.000000	99.695470
3142.000000	99.696433
3141.000000	99.697320
3140.000000	99.698392
3139.000000	99.699712
3138.000000	99.701342
3137.000000	99.703490
3136.000000	99.706165
3135.000000	99.708744
3134.000000	99.710290
3133.000000	99.710473
3132.000000	99.709954
3131.000000	99.709804
3130.000000	99.710509
3129.000000	99.711740
3128.000000	99.712884
3127.000000	99.713537
3126.000000	99.713599
3125.000000	99.713172
3124.000000	99.712547
3123.000000	99.712174
3122.000000	99.712470
3121.000000	99.713600
3120.000000	99.715376
3119.000000	99.717283
3118.000000	99.718729
3117.000000	99.719448
3116.000000	99.719688
3115.000000	99.720010
3114.000000	99.720797
3113.000000	99.722000
3112.000000	99.723303
3111.000000	99.724466
3110.000000	99.725496
3109.000000	99.726547
3108.000000	99.727714
3107.000000	99.728905
3106.000000	99.729907
3105.000000	99.730580
3104.000000	99.730939
3103.000000	99.731101
3102.000000	99.731240
3101.000000	99.731575
3100.000000	99.732274
3099.000000	99.733328
3098.000000	99.734550
3097.000000	99.735723
3096.000000	99.736732
3095.000000	99.737516
3094.000000	99.738048
3093.000000	99.738406
3092.000000	99.738802
3091.000000	99.739422
3090.000000	99.740246
3089.000000	99.741124
3088.000000	99.741989
3087.000000	99.742921
3086.000000	99.743987
3085.000000	99.745127
3084.000000	99.746222
3083.000000	99.747206
3082.000000	99.748112
3081.000000	99.749045
3080.000000	99.750088
3079.000000	99.751236
3078.000000	99.752403
3077.000000	99.753502
3076.000000	99.754517
3075.000000	99.755503
3074.000000	99.756517
3073.000000	99.757567
3072.000000	99.758617
3071.000000	99.759624
3070.000000	99.760556
3069.000000	99.761393
3068.000000	99.762191
3067.000000	99.763133
3066.000000	99.764430
3065.000000	99.766009
3064.000000	99.767480
3063.000000	99.768542
3062.000000	99.769228
3061.000000	99.769801
3060.000000	99.770509
3059.000000	99.771456
3058.000000	99.772543
3057.000000	99.773600
3056.000000	99.774797
3055.000000	99.776683
3054.000000	99.779344
3053.000000	99.781736
3052.000000	99.782625
3051.000000	99.782185
3050.000000	99.782026
3049.000000	99.783232
3048.000000	99.785029
3047.000000	99.785878
3046.000000	99.785310
3045.000000	99.784142
3044.000000	99.783432
3043.000000	99.783843
3042.000000	99.785708
3041.000000	99.788909
3040.000000	99.792696
3039.000000	99.796245
3038.000000	99.799384
3037.000000	99.802363
3036.000000	99.805121
3035.000000	99.807244
3034.000000	99.808549
3033.000000	99.809190
3032.000000	99.809114
3031.000000	99.807851
3030.000000	99.805073
3029.000000	99.801314
3028.000000	99.798166
3027.000000	99.797678
3026.000000	99.801113
3025.000000	99.807865
3024.000000	99.815491
3023.000000	99.821562
3022.000000	99.825735
3021.000000	99.829491
3020.000000	99.834060
3019.000000	99.839068
3018.000000	99.843249
3017.000000	99.845984
3016.000000	99.847785
3015.000000	99.849530
3014.000000	99.851706
3013.000000	99.854369
3012.000000	99.857425
3011.000000	99.860726
3010.000000	99.864019
3009.000000	99.867036
3008.000000	99.869691
3007.000000	99.872111
3006.000000	99.874500
3005.000000	99.877019
3004.000000	99.879825
3003.000000	99.883192
3002.000000	99.887446
3001.000000	99.892536
3000.000000	99.897561
2999.000000	99.901041
2998.000000	99.902132
2997.000000	99.901635
2996.000000	99.901569
2995.000000	99.903336
2994.000000	99.906568
2993.000000	99.909986
2992.000000	99.913007
2991.000000	99.916049
2990.000000	99.919406
2989.000000	99.922559
2988.000000	99.924835
2987.000000	99.926195
2986.000000	99.927061
2985.000000	99.927783
2984.000000	99.928588
2983.000000	99.929738
2982.000000	99.931334
2981.000000	99.933142
2980.000000	99.934969
2979.000000	99.937086
2978.000000	99.939856
2977.000000	99.942877
2976.000000	99.944896
2975.000000	99.944804
2974.000000	99.942613
2973.000000	99.939620
2972.000000	99.937717
2971.000000	99.938253
2970.000000	99.941292
2969.000000	99.945538
2968.000000	99.949075
2967.000000	99.950657
2966.000000	99.950358
2965.000000	99.949276
2964.000000	99.948647
2963.000000	99.948923
2962.000000	99.949601
2961.000000	99.949936
2960.000000	99.949733
2959.000000	99.949212
2958.000000	99.948242
2957.000000	99.946376
2956.000000	99.943886
2955.000000	99.942040
2954.000000	99.941737
2953.000000	99.942433
2952.000000	99.943104
2951.000000	99.943859
2950.000000	99.945621
2949.000000	99.948361
2948.000000	99.950661
2947.000000	99.951149
2946.000000	99.949708
2945.000000	99.947239
2944.000000	99.944958
2943.000000	99.943843
2942.000000	99.943984
2941.000000	99.944314
2940.000000	99.943814
2939.000000	99.943207
2938.000000	99.944452
2937.000000	99.948290
2936.000000	99.953274
2935.000000	99.957561
2934.000000	99.960827
2933.000000	99.963647
2932.000000	99.966011
2931.000000	99.967459
2930.000000	99.967983
2929.000000	99.967803
2928.000000	99.966753
2927.000000	99.964712
2926.000000	99.962217
2925.000000	99.959998
2924.000000	99.958399
2923.000000	99.957755
2922.000000	99.958736
2921.000000	99.961530
2920.000000	99.965039
2919.000000	99.967714
2918.000000	99.969102
2917.000000	99.969870
2916.000000	99.970486
2915.000000	99.970513
2914.000000	99.969259
2913.000000	99.966709
2912.000000	99.963769
2911.000000	99.961797
2910.000000	99.961720
2909.000000	99.963359
2908.000000	99.965578
2907.000000	99.967288
2906.000000	99.968260
2905.000000	99.968839
2904.000000	99.969193
2903.000000	99.969160
2902.000000	99.968542
2901.000000	99.967234
2900.000000	99.965177
2899.000000	99.962593
2898.000000	99.960157
2897.000000	99.958559
2896.000000	99.957867
2895.000000	99.957511
2894.000000	99.956846
2893.000000	99.955642
2892.000000	99.954141
2891.000000	99.952861
2890.000000	99.952319
2889.000000	99.952693
2888.000000	99.953636
2887.000000	99.954437
2886.000000	99.954441
2885.000000	99.953360
2884.000000	99.951301
2883.000000	99.948720
2882.000000	99.946287
2881.000000	99.944578
2880.000000	99.943788
2879.000000	99.943656
2878.000000	99.943601
2877.000000	99.943079
2876.000000	99.941951
2875.000000	99.940584
2874.000000	99.939549
2873.000000	99.939051
2872.000000	99.938688
2871.000000	99.937839
2870.000000	99.936283
2869.000000	99.934360
2868.000000	99.932574
2867.000000	99.931153
2866.000000	99.930050
2865.000000	99.929255
2864.000000	99.928989
2863.000000	99.929509
2862.000000	99.930690
2861.000000	99.931821
2860.000000	99.932063
2859.000000	99.931143
2858.000000	99.929463
2857.000000	99.927550
2856.000000	99.925590
2855.000000	99.923681
2854.000000	99.922187
2853.000000	99.921415
2852.000000	99.921126
2851.000000	99.920771
2850.000000	99.920119
2849.000000	99.919264
2848.000000	99.918120
2847.000000	99.916434
2846.000000	99.914418
2845.000000	99.912842
2844.000000	99.912192
2843.000000	99.911975
2842.000000	99.911145
2841.000000	99.909157
2840.000000	99.906473
2839.000000	99.904075
2838.000000	99.902647
2837.000000	99.902226
2836.000000	99.902587
2835.000000	99.903715
2834.000000	99.905577
2833.000000	99.907580
2832.000000	99.908822
2831.000000	99.908987
2830.000000	99.908560
2829.000000	99.907968
2828.000000	99.906978
2827.000000	99.905334
2826.000000	99.903559
2825.000000	99.902566
2824.000000	99.902703
2823.000000	99.903735
2822.000000	99.905430
2821.000000	99.907507
2820.000000	99.909171
2819.000000	99.909475
2818.000000	99.908311
2817.000000	99.906601
2816.000000	99.905420
2815.000000	99.905174
2814.000000	99.905737
2813.000000	99.906788
2812.000000	99.907841
2811.000000	99.908449
2810.000000	99.908744
2809.000000	99.909452
2808.000000	99.911007
2807.000000	99.912887
2806.000000	99.914146
2805.000000	99.914421
2804.000000	99.914030
2803.000000	99.913294
2802.000000	99.912194
2801.000000	99.910770
2800.000000	99.909525
2799.000000	99.909122
2798.000000	99.909783
2797.000000	99.911069
2796.000000	99.912233
2795.000000	99.912921
2794.000000	99.913352
2793.000000	99.913859
2792.000000	99.914437
2791.000000	99.914878
2790.000000	99.915205
2789.000000	99.915697
2788.000000	99.916428
2787.000000	99.917101
2786.000000	99.917458
2785.000000	99.917640
2784.000000	99.918009
2783.000000	99.918742
2782.000000	99.919736
2781.000000	99.920750
2780.000000	99.921523
2779.000000	99.921907
2778.000000	99.922024
2777.000000	99.922225
2776.000000	99.922742
2775.000000	99.923431
2774.000000	99.923962
2773.000000	99.924207
2772.000000	99.924313
2771.000000	99.924452
2770.000000	99.924636
2769.000000	99.924813
2768.000000	99.924985
2767.000000	99.925192
2766.000000	99.925450
2765.000000	99.925734
2764.000000	99.926012
2763.000000	99.926271
2762.000000	99.926520
2761.000000	99.926770
2760.000000	99.927017
2759.000000	99.927251
2758.000000	99.927467
2757.000000	99.927663
2756.000000	99.927841
2755.000000	99.928009
2754.000000	99.928178
2753.000000	99.928345
2752.000000	99.928506
2751.000000	99.928652
2750.000000	99.928781
2749.000000	99.928897
2748.000000	99.929002
2747.000000	99.929101
2746.000000	99.929191
2745.000000	99.929276
2744.000000	99.929362
2743.000000	99.929454
2742.000000	99.929555
2741.000000	99.929657
2740.000000	99.929756
2739.000000	99.929847
2738.000000	99.929929
2737.000000	99.929999
2736.000000	99.930059
2735.000000	99.930116
2734.000000	99.930177
2733.000000	99.930250
2732.000000	99.930340
2731.000000	99.930450
2730.000000	99.930579
2729.000000	99.930717
2728.000000	99.930855
2727.000000	99.930983
2726.000000	99.931098
2725.000000	99.931204
2724.000000	99.931307
2723.000000	99.931420
2722.000000	99.931551
2721.000000	99.931699
2720.000000	99.931848
2719.000000	99.931991
2718.000000	99.932138
2717.000000	99.932301
2716.000000	99.932464
2715.000000	99.932611
2714.000000	99.932771
2713.000000	99.933015
2712.000000	99.933376
2711.000000	99.933770
2710.000000	99.934085
2709.000000	99.934329
2708.000000	99.934622
2707.000000	99.935033
2706.000000	99.935480
2705.000000	99.935821
2704.000000	99.936036
2703.000000	99.936279
2702.000000	99.936726
2701.000000	99.937354
2700.000000	99.937931
2699.000000	99.938273
2698.000000	99.938454
2697.000000	99.938638
2696.000000	99.938694
2695.000000	99.938315
2694.000000	99.937618
2693.000000	99.937204
2692.000000	99.937486
2691.000000	99.938252
2690.000000	99.938963
2689.000000	99.939391
2688.000000	99.939658
2687.000000	99.939809
2686.000000	99.939722
2685.000000	99.939466
2684.000000	99.939392
2683.000000	99.939729
2682.000000	99.940299
2681.000000	99.940765
2680.000000	99.941003
2679.000000	99.941150
2678.000000	99.941442
2677.000000	99.942100
2676.000000	99.943191
2675.000000	99.944456
2674.000000	99.945416
2673.000000	99.945820
2672.000000	99.945844
2671.000000	99.945729
2670.000000	99.945416
2669.000000	99.944792
2668.000000	99.944113
2667.000000	99.943834
2666.000000	99.944080
2665.000000	99.944520
2664.000000	99.944735
2663.000000	99.944550
2662.000000	99.944034
2661.000000	99.943365
2660.000000	99.942703
2659.000000	99.942075
2658.000000	99.941464
2657.000000	99.941124
2656.000000	99.941570
2655.000000	99.942978
2654.000000	99.944718
2653.000000	99.945713
2652.000000	99.945516
2651.000000	99.944646
2650.000000	99.944080
2649.000000	99.944263
2648.000000	99.944873
2647.000000	99.945411
2646.000000	99.945749
2645.000000	99.946065
2644.000000	99.946457
2643.000000	99.946836
2642.000000	99.947090
2641.000000	99.947229
2640.000000	99.947366
2639.000000	99.947597
2638.000000	99.947914
2637.000000	99.948234
2636.000000	99.948528
2635.000000	99.948870
2634.000000	99.949322
2633.000000	99.949774
2632.000000	99.949992
2631.000000	99.949800
2630.000000	99.949175
2629.000000	99.948212
2628.000000	99.947119
2627.000000	99.946235
2626.000000	99.945890
2625.000000	99.946124
2624.000000	99.946594
2623.000000	99.946821
2622.000000	99.946643
2621.000000	99.946340
2620.000000	99.946275
2619.000000	99.946434
2618.000000	99.946437
2617.000000	99.946031
2616.000000	99.945467
2615.000000	99.945246
2614.000000	99.945537
2613.000000	99.946018
2612.000000	99.946279
2611.000000	99.946345
2610.000000	99.946520
2609.000000	99.946822
2608.000000	99.946918
2607.000000	99.946634
2606.000000	99.946197
2605.000000	99.945897
2604.000000	99.945695
2603.000000	99.945378
2602.000000	99.944918
2601.000000	99.944526
2600.000000	99.944379
2599.000000	99.944427
2598.000000	99.944472
2597.000000	99.944350
2596.000000	99.944043
2595.000000	99.943680
2594.000000	99.943459
2593.000000	99.943489
2592.000000	99.943714
2591.000000	99.943978
2590.000000	99.944147
2589.000000	99.944194
2588.000000	99.944157
2587.000000	99.944084
2586.000000	99.944023
2585.000000	99.944017
2584.000000	99.944093
2583.000000	99.944233
2582.000000	99.944358
2581.000000	99.944386
2580.000000	99.944299
2579.000000	99.944164
2578.000000	99.944086
2577.000000	99.944110
2576.000000	99.944198
2575.000000	99.944254
2574.000000	99.944211
2573.000000	99.944084
2572.000000	99.943946
2571.000000	99.943861
2570.000000	99.943830
2569.000000	99.943808
2568.000000	99.943775
2567.000000	99.943750
2566.000000	99.943759
2565.000000	99.943791
2564.000000	99.943804
2563.000000	99.943765
2562.000000	99.943681
2561.000000	99.943578
2560.000000	99.943485
2559.000000	99.943432
2558.000000	99.943437
2557.000000	99.943493
2556.000000	99.943565
2555.000000	99.943616
2554.000000	99.943644
2553.000000	99.943665
2552.000000	99.943685
2551.000000	99.943700
2550.000000	99.943722
2549.000000	99.943789
2548.000000	99.943921
2547.000000	99.944099
2546.000000	99.944284
2545.000000	99.944450
2544.000000	99.944596
2543.000000	99.944728
2542.000000	99.944860
2541.000000	99.945007
2540.000000	99.945177
2539.000000	99.945365
2538.000000	99.945555
2537.000000	99.945733
2536.000000	99.945896
2535.000000	99.946047
2534.000000	99.946198
2533.000000	99.946364
2532.000000	99.946564
2531.000000	99.946805
2530.000000	99.947068
2529.000000	99.947297
2528.000000	99.947439
2527.000000	99.947486
2526.000000	99.947499
2525.000000	99.947565
2524.000000	99.947730
2523.000000	99.947979
2522.000000	99.948275
2521.000000	99.948631
2520.000000	99.949096
2519.000000	99.949661
2518.000000	99.950174
2517.000000	99.950443
2516.000000	99.950391
2515.000000	99.950139
2514.000000	99.949910
2513.000000	99.949871
2512.000000	99.950098
2511.000000	99.950581
2510.000000	99.951229
2509.000000	99.951868
2508.000000	99.952314
2507.000000	99.952494
2506.000000	99.952517
2505.000000	99.952628
2504.000000	99.952977
2503.000000	99.953458
2502.000000	99.953810
2501.000000	99.953902
2500.000000	99.953832
2499.000000	99.953718
2498.000000	99.953541
2497.000000	99.953277
2496.000000	99.953073
2495.000000	99.953103
2494.000000	99.953308
2493.000000	99.953481
2492.000000	99.953626
2491.000000	99.953983
2490.000000	99.954631
2489.000000	99.955330
2488.000000	99.955851
2487.000000	99.956267
2486.000000	99.956779
2485.000000	99.957388
2484.000000	99.957897
2483.000000	99.958169
2482.000000	99.958272
2481.000000	99.958386
2480.000000	99.958655
2479.000000	99.959103
2478.000000	99.959619
2477.000000	99.959999
2476.000000	99.960113
2475.000000	99.960052
2474.000000	99.960095
2473.000000	99.960450
2472.000000	99.961068
2471.000000	99.961650
2470.000000	99.961909
2469.000000	99.961816
2468.000000	99.961563
2467.000000	99.961380
2466.000000	99.961362
2465.000000	99.961489
2464.000000	99.961678
2463.000000	99.961814
2462.000000	99.961793
2461.000000	99.961581
2460.000000	99.961252
2459.000000	99.960968
2458.000000	99.960888
2457.000000	99.961056
2456.000000	99.961382
2455.000000	99.961725
2454.000000	99.962005
2453.000000	99.962220
2452.000000	99.962374
2451.000000	99.962439
2450.000000	99.962408
2449.000000	99.962353
2448.000000	99.962382
2447.000000	99.962535
2446.000000	99.962735
2445.000000	99.962877
2444.000000	99.962947
2443.000000	99.963006
2442.000000	99.963041
2441.000000	99.962936
2440.000000	99.962638
2439.000000	99.962247
2438.000000	99.961936
2437.000000	99.961777
2436.000000	99.961734
2435.000000	99.961787
2434.000000	99.961965
2433.000000	99.962233
2432.000000	99.962429
2431.000000	99.962414
2430.000000	99.962241
2429.000000	99.962114
2428.000000	99.962140
2427.000000	99.962250
2426.000000	99.962330
2425.000000	99.962409
2424.000000	99.962627
2423.000000	99.963026
2422.000000	99.963496
2421.000000	99.963909
2420.000000	99.964221
2419.000000	99.964454
2418.000000	99.964643
2417.000000	99.964829
2416.000000	99.965048
2415.000000	99.965300
2414.000000	99.965550
2413.000000	99.965767
2412.000000	99.965961
2411.000000	99.966177
2410.000000	99.966442
2409.000000	99.966741
2408.000000	99.967046
2407.000000	99.967339
2406.000000	99.967625
2405.000000	99.967914
2404.000000	99.968205
2403.000000	99.968496
2402.000000	99.968782
2401.000000	99.969064
2400.000000	99.969352
2399.000000	99.969654
2398.000000	99.969976
2397.000000	99.970314
2396.000000	99.970659
2395.000000	99.971006
2394.000000	99.971358
2393.000000	99.971715
2392.000000	99.972076
2391.000000	99.972433
2390.000000	99.972781
2389.000000	99.973118
2388.000000	99.973448
2387.000000	99.973775
2386.000000	99.974103
2385.000000	99.974432
2384.000000	99.974764
2383.000000	99.975102
2382.000000	99.975446
2381.000000	99.975788
2380.000000	99.976120
2379.000000	99.976430
2378.000000	99.976712
2377.000000	99.976968
2376.000000	99.977203
2375.000000	99.977427
2374.000000	99.977646
2373.000000	99.977865
2372.000000	99.978090
2371.000000	99.978327
2370.000000	99.978573
2369.000000	99.978807
2368.000000	99.978999
2367.000000	99.979133
2366.000000	99.979237
2365.000000	99.979354
2364.000000	99.979493
2363.000000	99.979608
2362.000000	99.979654
2361.000000	99.979628
2360.000000	99.979575
2359.000000	99.979562
2358.000000	99.979624
2357.000000	99.979744
2356.000000	99.979877
2355.000000	99.979988
2354.000000	99.980070
2353.000000	99.980130
2352.000000	99.980169
2351.000000	99.980176
2350.000000	99.980130
2349.000000	99.980008
2348.000000	99.979816
2347.000000	99.979632
2346.000000	99.979580
2345.000000	99.979718
2344.000000	99.979962
2343.000000	99.980142
2342.000000	99.980147
2341.000000	99.979940
2340.000000	99.979514
2339.000000	99.978921
2338.000000	99.978277
2337.000000	99.977706
2336.000000	99.977275
2335.000000	99.976996
2334.000000	99.976831
2333.000000	99.976690
2332.000000	99.976485
2331.000000	99.976187
2330.000000	99.975819
2329.000000	99.975388
2328.000000	99.974883
2327.000000	99.974352
2326.000000	99.973906
2325.000000	99.973603
2324.000000	99.973375
2323.000000	99.973088
2322.000000	99.972691
2321.000000	99.972247
2320.000000	99.971845
2319.000000	99.971493
2318.000000	99.971126
2317.000000	99.970693
2316.000000	99.970209
2315.000000	99.969723
2314.000000	99.969268
2313.000000	99.968830
2312.000000	99.968372
2311.000000	99.967881
2310.000000	99.967375
2309.000000	99.966876
2308.000000	99.966367
2307.000000	99.965818
2306.000000	99.965238
2305.000000	99.964697
2304.000000	99.964248
2303.000000	99.963873
2302.000000	99.963504
2301.000000	99.963120
2300.000000	99.962754
2299.000000	99.962437
2298.000000	99.962167
2297.000000	99.961909
2296.000000	99.961616
2295.000000	99.961260
2294.000000	99.960844
2293.000000	99.960363
2292.000000	99.959776
2291.000000	99.959044
2290.000000	99.958228
2289.000000	99.957502
2288.000000	99.957025
2287.000000	99.956804
2286.000000	99.956715
2285.000000	99.956623
2284.000000	99.956401
2283.000000	99.955865
2282.000000	99.954878
2281.000000	99.953642
2280.000000	99.952711
2279.000000	99.952532
2278.000000	99.952999
2277.000000	99.953609
2276.000000	99.953944
2275.000000	99.953957
2274.000000	99.953785
2273.000000	99.953511
2272.000000	99.953094
2271.000000	99.952469
2270.000000	99.951659
2269.000000	99.950805
2268.000000	99.950092
2267.000000	99.949613
2266.000000	99.949353
2265.000000	99.949310
2264.000000	99.949540
2263.000000	99.950009
2262.000000	99.950477
2261.000000	99.950632
2260.000000	99.950334
2259.000000	99.949643
2258.000000	99.948708
2257.000000	99.947749
2256.000000	99.947048
2255.000000	99.946747
2254.000000	99.946606
2253.000000	99.946201
2252.000000	99.945484
2251.000000	99.944942
2250.000000	99.944977
2249.000000	99.945363
2248.000000	99.945558
2247.000000	99.945476
2246.000000	99.945608
2245.000000	99.946343
2244.000000	99.947516
2243.000000	99.948740
2242.000000	99.949888
2241.000000	99.950954
2240.000000	99.951596
2239.000000	99.951313
2238.000000	99.950173
2237.000000	99.949039
2236.000000	99.948765
2235.000000	99.949287
2234.000000	99.949785
2233.000000	99.949587
2232.000000	99.948672
2231.000000	99.947403
2230.000000	99.946172
2229.000000	99.945348
2228.000000	99.945187
2227.000000	99.945504
2226.000000	99.945631
2225.000000	99.945056
2224.000000	99.944097
2223.000000	99.943689
2222.000000	99.944480
2221.000000	99.946293
2220.000000	99.948378
2219.000000	99.950046
2218.000000	99.951030
2217.000000	99.951373
2216.000000	99.951154
2215.000000	99.950374
2214.000000	99.949103
2213.000000	99.947773
2212.000000	99.947124
2211.000000	99.947628
2210.000000	99.948918
2209.000000	99.949892
2208.000000	99.949620
2207.000000	99.948081
2206.000000	99.946068
2205.000000	99.944444
2204.000000	99.943511
2203.000000	99.943111
2202.000000	99.943084
2201.000000	99.943452
2200.000000	99.944237
2199.000000	99.945295
2198.000000	99.946397
2197.000000	99.947414
2196.000000	99.948358
2195.000000	99.949273
2194.000000	99.950144
2193.000000	99.950877
2192.000000	99.951371
2191.000000	99.951589
2190.000000	99.951601
2189.000000	99.951516
2188.000000	99.951372
2187.000000	99.951168
2186.000000	99.951030
2185.000000	99.951174
2184.000000	99.951611
2183.000000	99.952014
2182.000000	99.952044
2181.000000	99.951746
2180.000000	99.951455
2179.000000	99.951367
2178.000000	99.951367
2177.000000	99.951313
2176.000000	99.951291
2175.000000	99.951512
2174.000000	99.952058
2173.000000	99.952835
2172.000000	99.953637
2171.000000	99.954220
2170.000000	99.954432
2169.000000	99.954346
2168.000000	99.954237
2167.000000	99.954366
2166.000000	99.954763
2165.000000	99.955232
2164.000000	99.955501
2163.000000	99.955430
2162.000000	99.955072
2161.000000	99.954666
2160.000000	99.954530
2159.000000	99.954904
2158.000000	99.955811
2157.000000	99.956984
2156.000000	99.958023
2155.000000	99.958634
2154.000000	99.958753
2153.000000	99.958553
2152.000000	99.958314
2151.000000	99.958185
2150.000000	99.958103
2149.000000	99.958038
2148.000000	99.958235
2147.000000	99.958928
2146.000000	99.959847
2145.000000	99.960353
2144.000000	99.960158
2143.000000	99.959661
2142.000000	99.959427
2141.000000	99.959547
2140.000000	99.959640
2139.000000	99.959266
2138.000000	99.958297
2137.000000	99.957199
2136.000000	99.956877
2135.000000	99.957803
2134.000000	99.959220
2133.000000	99.959729
2132.000000	99.958920
2131.000000	99.957817
2130.000000	99.957381
2129.000000	99.957195
2128.000000	99.956217
2127.000000	99.954362
2126.000000	99.952604
2125.000000	99.951850
2124.000000	99.952431
2123.000000	99.954399
2122.000000	99.957572
2121.000000	99.961287
2120.000000	99.964742
2119.000000	99.967686
2118.000000	99.970282
2117.000000	99.972340
2116.000000	99.973240
2115.000000	99.972683
2114.000000	99.971109
2113.000000	99.969345
2112.000000	99.968072
2111.000000	99.967557
2110.000000	99.967648
2109.000000	99.968035
2108.000000	99.968754
2107.000000	99.970249
2106.000000	99.972559
2105.000000	99.974636
2104.000000	99.975140
2103.000000	99.973953
2102.000000	99.972469
2101.000000	99.972145
2100.000000	99.972983
2099.000000	99.973818
2098.000000	99.973736
2097.000000	99.972924
2096.000000	99.972263
2095.000000	99.972363
2094.000000	99.973031
2093.000000	99.973554
2092.000000	99.973492
2091.000000	99.973177
2090.000000	99.973367
2089.000000	99.974400
2088.000000	99.975809
2087.000000	99.976814
2086.000000	99.977081
2085.000000	99.976848
2084.000000	99.976430
2083.000000	99.975829
2082.000000	99.974928
2081.000000	99.973894
2080.000000	99.973156
2079.000000	99.972992
2078.000000	99.973250
2077.000000	99.973571
2076.000000	99.973792
2075.000000	99.973983
2074.000000	99.974196
2073.000000	99.974410
2072.000000	99.974753
2071.000000	99.975533
2070.000000	99.976839
2069.000000	99.978246
2068.000000	99.979207
2067.000000	99.979765
2066.000000	99.980509
2065.000000	99.981639
2064.000000	99.982343
2063.000000	99.981607
2062.000000	99.979509
2061.000000	99.977411
2060.000000	99.976603
2059.000000	99.976994
2058.000000	99.977495
2057.000000	99.977427
2056.000000	99.977089
2055.000000	99.976934
2054.000000	99.976898
2053.000000	99.976894
2052.000000	99.977373
2051.000000	99.978809
2050.000000	99.980890
2049.000000	99.982777
2048.000000	99.984017
2047.000000	99.984556
2046.000000	99.984043
2045.000000	99.982005
2044.000000	99.978839
2043.000000	99.975987
2042.000000	99.974609
2041.000000	99.974611
2040.000000	99.975283
2039.000000	99.976236
2038.000000	99.977238
2037.000000	99.977640
2036.000000	99.976765
2035.000000	99.974738
2034.000000	99.972420
2033.000000	99.970538
2032.000000	99.969213
2031.000000	99.968232
2030.000000	99.967272
2029.000000	99.965961
2028.000000	99.964261
2027.000000	99.962798
2026.000000	99.962275
2025.000000	99.962460
2024.000000	99.962231
2023.000000	99.960898
2022.000000	99.959000
2021.000000	99.957533
2020.000000	99.956804
2019.000000	99.956463
2018.000000	99.956343
2017.000000	99.956628
2016.000000	99.957232
2015.000000	99.957603
2014.000000	99.957320
2013.000000	99.956539
2012.000000	99.955687
2011.000000	99.954906
2010.000000	99.953968
2009.000000	99.952603
2008.000000	99.950730
2007.000000	99.948459
2006.000000	99.946180
2005.000000	99.944621
2004.000000	99.944395
2003.000000	99.945422
2002.000000	99.946806
2001.000000	99.947569
2000.000000	99.947557
1999.000000	99.947264
1998.000000	99.947065
1997.000000	99.946882
1996.000000	99.946521
1995.000000	99.945964
1994.000000	99.945243
1993.000000	99.944328
1992.000000	99.943288
1991.000000	99.942328
1990.000000	99.941505
1989.000000	99.940680
1988.000000	99.939923
1987.000000	99.939654
1986.000000	99.940126
1985.000000	99.940999
1984.000000	99.941677
1983.000000	99.941933
1982.000000	99.941964
1981.000000	99.941996
1980.000000	99.942083
1979.000000	99.942161
1978.000000	99.942063
1977.000000	99.941584
1976.000000	99.940765
1975.000000	99.940034
1974.000000	99.939781
1973.000000	99.939853
1972.000000	99.939730
1971.000000	99.939197
1970.000000	99.938543
1969.000000	99.938081
1968.000000	99.937803
1967.000000	99.937638
1966.000000	99.937714
1965.000000	99.938102
1964.000000	99.938508
1963.000000	99.938518
1962.000000	99.938044
1961.000000	99.937370
1960.000000	99.936893
1959.000000	99.936774
1958.000000	99.936878
1957.000000	99.936887
1956.000000	99.936536
1955.000000	99.935839
1954.000000	99.935105
1953.000000	99.934627
1952.000000	99.934366
1951.000000	99.934090
1950.000000	99.933710
1949.000000	99.933306
1948.000000	99.932886
1947.000000	99.932345
1946.000000	99.931663
1945.000000	99.930900
1944.000000	99.930011
1943.000000	99.928914
1942.000000	99.927780
1941.000000	99.926935
1940.000000	99.926360
1939.000000	99.925670
1938.000000	99.924721
1937.000000	99.923905
1936.000000	99.923594
1935.000000	99.923587
1934.000000	99.923364
1933.000000	99.922734
1932.000000	99.921945
1931.000000	99.921212
1930.000000	99.920406
1929.000000	99.919341
1928.000000	99.918137
1927.000000	99.917133
1926.000000	99.916518
1925.000000	99.916180
1924.000000	99.915867
1923.000000	99.915400
1922.000000	99.914820
1921.000000	99.914347
1920.000000	99.914027
1919.000000	99.913414
1918.000000	99.911853
1917.000000	99.909313
1916.000000	99.906758
1915.000000	99.905215
1914.000000	99.904839
1913.000000	99.904967
1912.000000	99.904682
1911.000000	99.903396
1910.000000	99.901053
1909.000000	99.898204
1908.000000	99.895812
1907.000000	99.894602
1906.000000	99.894507
1905.000000	99.894815
1904.000000	99.894848
1903.000000	99.894273
1902.000000	99.892834
1901.000000	99.890309
1900.000000	99.886893
1899.000000	99.883439
1898.000000	99.881058
1897.000000	99.880282
1896.000000	99.880576
1895.000000	99.880639
1894.000000	99.879391
1893.000000	99.876807
1892.000000	99.873639
1891.000000	99.870569
1890.000000	99.867862
1889.000000	99.865600
1888.000000	99.863916
1887.000000	99.862835
1886.000000	99.862293
1885.000000	99.862470
1884.000000	99.863619
1883.000000	99.865408
1882.000000	99.866870
1881.000000	99.867202
1880.000000	99.866212
1879.000000	99.864071
1878.000000	99.861298
1877.000000	99.858892
1876.000000	99.857797
1875.000000	99.857886
1874.000000	99.857922
1873.000000	99.857071
1872.000000	99.856045
1871.000000	99.856157
1870.000000	99.857630
1869.000000	99.859392
1868.000000	99.860945
1867.000000	99.863036
1866.000000	99.865652
1865.000000	99.867373
1864.000000	99.867197
1863.000000	99.866049
1862.000000	99.866226
1861.000000	99.869358
1860.000000	99.875012
1859.000000	99.880971
1858.000000	99.884958
1857.000000	99.886385
1856.000000	99.886405
1855.000000	99.886337
1854.000000	99.886590
1853.000000	99.887174
1852.000000	99.888274
1851.000000	99.889838
1850.000000	99.891228
1849.000000	99.891885
1848.000000	99.892202
1847.000000	99.893214
1846.000000	99.895466
1845.000000	99.898343
1844.000000	99.900544
1843.000000	99.901499
1842.000000	99.901887
1841.000000	99.902423
1840.000000	99.902991
1839.000000	99.903101
1838.000000	99.902560
1837.000000	99.901708
1836.000000	99.901064
1835.000000	99.900803
1834.000000	99.900801
1833.000000	99.901068
1832.000000	99.901876
1831.000000	99.903502
1830.000000	99.905520
1829.000000	99.906725
1828.000000	99.906507
1827.000000	99.905460
1826.000000	99.904503
1825.000000	99.904035
1824.000000	99.903932
1823.000000	99.904111
1822.000000	99.904423
1821.000000	99.904248
1820.000000	99.902953
1819.000000	99.900751
1818.000000	99.898638
1817.000000	99.897459
1816.000000	99.897542
1815.000000	99.898953
1814.000000	99.901409
1813.000000	99.903909
1812.000000	99.905127
1811.000000	99.904613
1810.000000	99.902987
1809.000000	99.901009
1808.000000	99.899061
1807.000000	99.897312
1806.000000	99.895967
1805.000000	99.895373
1804.000000	99.895826
1803.000000	99.897215
1802.000000	99.898939
1801.000000	99.900311
1800.000000	99.901237
1799.000000	99.902109
1798.000000	99.902904
1797.000000	99.903267
1796.000000	99.903386
1795.000000	99.903920
1794.000000	99.905167
1793.000000	99.906371
1792.000000	99.906292
1791.000000	99.904846
1790.000000	99.903172
1789.000000	99.902278
1788.000000	99.902569
1787.000000	99.903911
1786.000000	99.905514
1785.000000	99.906397
1784.000000	99.906427
1783.000000	99.906437
1782.000000	99.907291
1781.000000	99.909219
1780.000000	99.911856
1779.000000	99.914690
1778.000000	99.917376
1777.000000	99.919745
1776.000000	99.921723
1775.000000	99.923156
1774.000000	99.923893
1773.000000	99.923941
1772.000000	99.923657
1771.000000	99.923992
1770.000000	99.925600
1769.000000	99.927750
1768.000000	99.929086
1767.000000	99.929347
1766.000000	99.929602
1765.000000	99.930752
1764.000000	99.932615
1763.000000	99.934468
1762.000000	99.935949
1761.000000	99.937360
1760.000000	99.939104
1759.000000	99.941049
1758.000000	99.942624
1757.000000	99.943541
1756.000000	99.944301
1755.000000	99.945890
1754.000000	99.948624
1753.000000	99.951483
1752.000000	99.952773
1751.000000	99.951865
1750.000000	99.950340
1749.000000	99.950121
1748.000000	99.951110
1747.000000	99.952269
1746.000000	99.953307
1745.000000	99.954194
1744.000000	99.954284
1743.000000	99.953145
1742.000000	99.951593
1741.000000	99.950856
1740.000000	99.951090
1739.000000	99.951522
1738.000000	99.951916
1737.000000	99.952412
1736.000000	99.952534
1735.000000	99.951322
1734.000000	99.948915
1733.000000	99.947383
1732.000000	99.947989
1731.000000	99.949709
1730.000000	99.951116
1729.000000	99.951766
1728.000000	99.951593
1727.000000	99.950569
1726.000000	99.949023
1725.000000	99.948028
1724.000000	99.948482
1723.000000	99.950005
1722.000000	99.951230
1721.000000	99.951272
1720.000000	99.950239
1719.000000	99.948901
1718.000000	99.947918
1717.000000	99.946906
1716.000000	99.945717
1715.000000	99.944697
1714.000000	99.943403
1713.000000	99.941479
1712.000000	99.939122
1711.000000	99.936329
1710.000000	99.933003
1709.000000	99.929679
1708.000000	99.927272
1707.000000	99.925957
1706.000000	99.924695
1705.000000	99.922530
1704.000000	99.920253
1703.000000	99.918895
1702.000000	99.918245
1701.000000	99.917425
1700.000000	99.916312
1699.000000	99.915730
1698.000000	99.915275
1697.000000	99.913305
1696.000000	99.909467
1695.000000	99.905695
1694.000000	99.903411
1693.000000	99.901948
1692.000000	99.900373
1691.000000	99.898529
1690.000000	99.896716
1689.000000	99.895155
1688.000000	99.893785
1687.000000	99.892328
1686.000000	99.890399
1685.000000	99.887887
1684.000000	99.885604
1683.000000	99.884603
1682.000000	99.884794
1681.000000	99.885226
1680.000000	99.885054
1679.000000	99.884174
1678.000000	99.882845
1677.000000	99.881308
1676.000000	99.879546
1675.000000	99.877622
1674.000000	99.875882
1673.000000	99.874542
1672.000000	99.873425
1671.000000	99.872242
1670.000000	99.870847
1669.000000	99.869483
1668.000000	99.868574
1667.000000	99.868193
1666.000000	99.868060
1665.000000	99.867801
1664.000000	99.867165
1663.000000	99.866101
1662.000000	99.864792
1661.000000	99.863580
1660.000000	99.862631
1659.000000	99.861875
1658.000000	99.861140
1657.000000	99.860353
1656.000000	99.859497
1655.000000	99.858706
1654.000000	99.858400
1653.000000	99.858575
1652.000000	99.858555
1651.000000	99.858161
1650.000000	99.857624
1649.000000	99.856997
1648.000000	99.856635
1647.000000	99.856717
1646.000000	99.857098
1645.000000	99.857289
1644.000000	99.857084
1643.000000	99.856494
1642.000000	99.855739
1641.000000	99.855096
1640.000000	99.854896
1639.000000	99.855329
1638.000000	99.856131
1637.000000	99.856526
1636.000000	99.855670
1635.000000	99.853803
1634.000000	99.852384
1633.000000	99.851944
1632.000000	99.851807
1631.000000	99.851484
1630.000000	99.851162
1629.000000	99.851525
1628.000000	99.852885
1627.000000	99.854716
1626.000000	99.856211
1625.000000	99.856880
1624.000000	99.856478
1623.000000	99.855124
1622.000000	99.853820
1621.000000	99.853848
1620.000000	99.855382
1619.000000	99.857514
1618.000000	99.859139
1617.000000	99.860007
1616.000000	99.861001
1615.000000	99.862730
1614.000000	99.864944
1613.000000	99.867212
1612.000000	99.869252
1611.000000	99.870779
1610.000000	99.871563
1609.000000	99.871753
1608.000000	99.871816
1607.000000	99.872174
1606.000000	99.873145
1605.000000	99.874838
1604.000000	99.876920
1603.000000	99.878840
1602.000000	99.880418
1601.000000	99.881910
1600.000000	99.883527
1599.000000	99.885322
1598.000000	99.887502
1597.000000	99.890172
1596.000000	99.892789
1595.000000	99.894419
1594.000000	99.894837
1593.000000	99.895032
1592.000000	99.896208
1591.000000	99.898555
1590.000000	99.901249
1589.000000	99.903348
1588.000000	99.904517
1587.000000	99.905145
1586.000000	99.906152
1585.000000	99.908321
1584.000000	99.911374
1583.000000	99.913985
1582.000000	99.915188
1581.000000	99.915222
1580.000000	99.915004
1579.000000	99.915021
1578.000000	99.915156
1577.000000	99.915109
1576.000000	99.914614
1575.000000	99.913969
1574.000000	99.914211
1573.000000	99.915901
1572.000000	99.918542
1571.000000	99.921009
1570.000000	99.922246
1569.000000	99.922425
1568.000000	99.922503
1567.000000	99.922722
1566.000000	99.922672
1565.000000	99.922297
1564.000000	99.921836
1563.000000	99.921423
1562.000000	99.920996
1561.000000	99.920596
1560.000000	99.920843
1559.000000	99.921627
1558.000000	99.921870
1557.000000	99.922079
1556.000000	99.922712
1555.000000	99.923255
1554.000000	99.923749
1553.000000	99.924209
1552.000000	99.924643
1551.000000	99.924823
1550.000000	99.924646
1549.000000	99.924224
1548.000000	99.923777
1547.000000	99.923396
1546.000000	99.923079
1545.000000	99.922829
1544.000000	99.922654
1543.000000	99.922506
1542.000000	99.922303
1541.000000	99.922011
1540.000000	99.921694
1539.000000	99.921456
1538.000000	99.921301
1537.000000	99.921190
1536.000000	99.921088
1535.000000	99.920979
1534.000000	99.920860
1533.000000	99.920733
1532.000000	99.920597
1531.000000	99.920451
1530.000000	99.920299
1529.000000	99.920146
1528.000000	99.920002
1527.000000	99.919878
1526.000000	99.919777
1525.000000	99.919696
1524.000000	99.919627
1523.000000	99.919559
1522.000000	99.919486
1521.000000	99.919406
1520.000000	99.919328
1519.000000	99.919263
1518.000000	99.919214
1517.000000	99.919186
1516.000000	99.919178
1515.000000	99.919188
1514.000000	99.919203
1513.000000	99.919214
1512.000000	99.919223
1511.000000	99.919243
1510.000000	99.919287
1509.000000	99.919360
1508.000000	99.919461
1507.000000	99.919580
1506.000000	99.919712
1505.000000	99.919855
1504.000000	99.920009
1503.000000	99.920174
1502.000000	99.920352
1501.000000	99.920541
1500.000000	99.920741
1499.000000	99.920955
1498.000000	99.921185
1497.000000	99.921423
1496.000000	99.921650
1495.000000	99.921855
1494.000000	99.922053
1493.000000	99.922259
1492.000000	99.922452
1491.000000	99.922621
1490.000000	99.922837
1489.000000	99.923148
1488.000000	99.923476
1487.000000	99.923720
1486.000000	99.923859
1485.000000	99.923973
1484.000000	99.924120
1483.000000	99.924268
1482.000000	99.924448
1481.000000	99.924840
1480.000000	99.925541
1479.000000	99.926265
1478.000000	99.926565
1477.000000	99.926347
1476.000000	99.926034
1475.000000	99.926071
1474.000000	99.926255
1473.000000	99.925934
1472.000000	99.925083
1471.000000	99.924695
1470.000000	99.925372
1469.000000	99.926643
1468.000000	99.927636
1467.000000	99.927663
1466.000000	99.926430
1465.000000	99.924320
1464.000000	99.922567
1463.000000	99.922318
1462.000000	99.923600
1461.000000	99.925624
1460.000000	99.927585
1459.000000	99.928995
1458.000000	99.929734
1457.000000	99.929492
1456.000000	99.928170
1455.000000	99.926658
1454.000000	99.925470
1453.000000	99.924215
1452.000000	99.922863
1451.000000	99.921746
1450.000000	99.921062
1449.000000	99.920033
1448.000000	99.917794
1447.000000	99.914875
1446.000000	99.912694
1445.000000	99.911467
1444.000000	99.910116
1443.000000	99.908071
1442.000000	99.906303
1441.000000	99.906332
1440.000000	99.908480
1439.000000	99.911669
1438.000000	99.914488
1437.000000	99.915576
1436.000000	99.914079
1435.000000	99.911091
1434.000000	99.908583
1433.000000	99.907410
1432.000000	99.907803
1431.000000	99.909426
1430.000000	99.911328
1429.000000	99.912721
1428.000000	99.913719
1427.000000	99.914910
1426.000000	99.916547
1425.000000	99.918599
1424.000000	99.920580
1423.000000	99.921754
1422.000000	99.921661
1421.000000	99.920153
1420.000000	99.917876
1419.000000	99.916807
1418.000000	99.918327
1417.000000	99.921143
1416.000000	99.923564
1415.000000	99.926040
1414.000000	99.930175
1413.000000	99.936258
1412.000000	99.942526
1411.000000	99.946945
1410.000000	99.949136
1409.000000	99.949772
1408.000000	99.949476
1407.000000	99.949157
1406.000000	99.950269
1405.000000	99.953414
1404.000000	99.956889
1403.000000	99.958501
1402.000000	99.958274
1401.000000	99.958117
1400.000000	99.959941
1399.000000	99.964084
1398.000000	99.969301
1397.000000	99.973984
1396.000000	99.976706
1395.000000	99.976355
1394.000000	99.973507
1393.000000	99.970639
1392.000000	99.969710
1391.000000	99.971021
1390.000000	99.973935
1389.000000	99.977506
1388.000000	99.980800
1387.000000	99.983116
1386.000000	99.984308
1385.000000	99.984651
1384.000000	99.984263
1383.000000	99.983128
1382.000000	99.981515
1381.000000	99.980059
1380.000000	99.979554
1379.000000	99.980465
1378.000000	99.982418
1377.000000	99.984196
1376.000000	99.984466
1375.000000	99.982762
1374.000000	99.980094
1373.000000	99.978240
1372.000000	99.978019
1371.000000	99.978895
1370.000000	99.979992
1369.000000	99.980818
1368.000000	99.981075
1367.000000	99.980605
1366.000000	99.979777
1365.000000	99.979452
1364.000000	99.980244
1363.000000	99.981716
1362.000000	99.982649
1361.000000	99.982575
1360.000000	99.982146
1359.000000	99.981967
1358.000000	99.981907
1357.000000	99.981625
1356.000000	99.981201
1355.000000	99.980953
1354.000000	99.980883
1353.000000	99.980699
1352.000000	99.980361
1351.000000	99.980195
1350.000000	99.980433
1349.000000	99.980899
1348.000000	99.981147
1347.000000	99.980934
1346.000000	99.980434
1345.000000	99.980076
1344.000000	99.980173
1343.000000	99.980713
1342.000000	99.981424
1341.000000	99.981980
1340.000000	99.982244
1339.000000	99.982289
1338.000000	99.982192
1337.000000	99.981890
1336.000000	99.981334
1335.000000	99.980705
1334.000000	99.980303
1333.000000	99.980317
1332.000000	99.980823
1331.000000	99.981774
1330.000000	99.982764
1329.000000	99.983064
1328.000000	99.982299
1327.000000	99.980999
1326.000000	99.980182
1325.000000	99.980345
1324.000000	99.981128
1323.000000	99.981980
1322.000000	99.982709
1321.000000	99.983220
1320.000000	99.983277
1319.000000	99.982931
1318.000000	99.982732
1317.000000	99.982898
1316.000000	99.982746
1315.000000	99.981623
1314.000000	99.980009
1313.000000	99.979098
1312.000000	99.979381
1311.000000	99.980246
1310.000000	99.980982
1309.000000	99.981607
1308.000000	99.982551
1307.000000	99.983835
1306.000000	99.984775
1305.000000	99.984547
1304.000000	99.982967
1303.000000	99.980775
1302.000000	99.979068
1301.000000	99.978367
1300.000000	99.978467
1299.000000	99.979210
1298.000000	99.980783
1297.000000	99.982845
1296.000000	99.983986
1295.000000	99.982986
1294.000000	99.980604
1293.000000	99.979367
1292.000000	99.980948
1291.000000	99.984187
1290.000000	99.986182
1289.000000	99.985177
1288.000000	99.981886
1287.000000	99.978369
1286.000000	99.975946
1285.000000	99.974216
1284.000000	99.971955
1283.000000	99.968908
1282.000000	99.966343
1281.000000	99.965450
1280.000000	99.965561
1279.000000	99.965003
1278.000000	99.963907
1277.000000	99.964792
1276.000000	99.969364
1275.000000	99.975617
1274.000000	99.979498
1273.000000	99.979257
1272.000000	99.976812
1271.000000	99.974912
1270.000000	99.974464
1269.000000	99.975193
1268.000000	99.977179
1267.000000	99.980070
1266.000000	99.981781
1265.000000	99.980250
1264.000000	99.976876
1263.000000	99.976189
1262.000000	99.980508
1261.000000	99.986018
1260.000000	99.986228
1259.000000	99.979242
1258.000000	99.969933
1257.000000	99.964682
1256.000000	99.965748
1255.000000	99.971126
1254.000000	99.977416
1253.000000	99.981186
1252.000000	99.979285
1251.000000	99.970687
1250.000000	99.958185
1249.000000	99.946199
1248.000000	99.936341
1247.000000	99.926728
1246.000000	99.916132
1245.000000	99.906943
1244.000000	99.902743
1243.000000	99.903763
1242.000000	99.905959
1241.000000	99.904561
1240.000000	99.898007
1239.000000	99.888740
1238.000000	99.880732
1237.000000	99.875867
1236.000000	99.872281
1235.000000	99.866302
1234.000000	99.856069
1233.000000	99.842741
1232.000000	99.827979
1231.000000	99.811312
1230.000000	99.791311
1229.000000	99.768887
1228.000000	99.747701
1227.000000	99.730411
1226.000000	99.715382
1225.000000	99.698475
1224.000000	99.677663
1223.000000	99.654369
1222.000000	99.630258
1221.000000	99.604484
1220.000000	99.575227
1219.000000	99.542699
1218.000000	99.508988
1217.000000	99.475109
1216.000000	99.439434
1215.000000	99.399175
1214.000000	99.352930
1213.000000	99.302227
1212.000000	99.251197
1211.000000	99.204070
1210.000000	99.161971
1209.000000	99.122465
1208.000000	99.082636
1207.000000	99.041624
1206.000000	98.999624
1205.000000	98.956168
1204.000000	98.911158
1203.000000	98.866626
1202.000000	98.825525
1201.000000	98.788922
1200.000000	98.755476
1199.000000	98.723073
1198.000000	98.689791
1197.000000	98.654114
1196.000000	98.615946
1195.000000	98.577273
1194.000000	98.540198
1193.000000	98.504052
1192.000000	98.465525
1191.000000	98.422137
1190.000000	98.375155
1189.000000	98.328851
1188.000000	98.286982
1187.000000	98.249752
1186.000000	98.213925
1185.000000	98.175904
1184.000000	98.134392
1183.000000	98.089701
1182.000000	98.041579
1181.000000	97.989482
1180.000000	97.934843
1179.000000	97.880992
1178.000000	97.830026
1177.000000	97.781095
1176.000000	97.732183
1175.000000	97.681902
1174.000000	97.629116
1173.000000	97.572948
1172.000000	97.514452
1171.000000	97.456812
1170.000000	97.402594
1169.000000	97.351715
1168.000000	97.302774
1167.000000	97.255397
1166.000000	97.211180
1165.000000	97.173967
1164.000000	97.149590
1163.000000	97.143360
1162.000000	97.156405
1161.000000	97.184288
1160.000000	97.218139
1159.000000	97.246501
1158.000000	97.259158
1157.000000	97.252656
1156.000000	97.231399
1155.000000	97.201244
1154.000000	97.163308
1153.000000	97.116786
1152.000000	97.065508
1151.000000	97.016330
1150.000000	96.971298
1149.000000	96.926908
1148.000000	96.881767
1147.000000	96.839165
1146.000000	96.800421
1145.000000	96.761445
1144.000000	96.718821
1143.000000	96.674270
1142.000000	96.629809
1141.000000	96.583129
1140.000000	96.531886
1139.000000	96.478864
1138.000000	96.428569
1137.000000	96.381394
1136.000000	96.335169
1135.000000	96.289973
1134.000000	96.247089
1133.000000	96.204827
1132.000000	96.159240
1131.000000	96.108278
1130.000000	96.052761
1129.000000	95.994506
1128.000000	95.935832
1127.000000	95.879464
1126.000000	95.826436
1125.000000	95.775103
1124.000000	95.723800
1123.000000	95.672888
1122.000000	95.622978
1121.000000	95.573530
1120.000000	95.524729
1119.000000	95.478059
1118.000000	95.433332
1117.000000	95.388057
1116.000000	95.341756
1115.000000	95.297851
1114.000000	95.258818
1113.000000	95.222116
1112.000000	95.183195
1111.000000	95.140219
1110.000000	95.094150
1109.000000	95.046848
1108.000000	95.001199
1107.000000	94.960794
1106.000000	94.926918
1105.000000	94.896906
1104.000000	94.866413
1103.000000	94.832019
1102.000000	94.792359
1101.000000	94.749421
1100.000000	94.708617
1099.000000	94.674362
1098.000000	94.644723
1097.000000	94.614262
1096.000000	94.581810
1095.000000	94.551774
1094.000000	94.527675
1093.000000	94.508622
1092.000000	94.492424
1091.000000	94.478112
1090.000000	94.465112
1089.000000	94.453591
1088.000000	94.445192
1087.000000	94.439671
1086.000000	94.432355
1085.000000	94.420031
1084.000000	94.407766
1083.000000	94.403507
1082.000000	94.406386
1081.000000	94.406939
1080.000000	94.398874
1079.000000	94.384006
1078.000000	94.365662
1077.000000	94.344509
1076.000000	94.321904
1075.000000	94.299764
1074.000000	94.274706
1073.000000	94.239075
1072.000000	94.190440
1071.000000	94.134275
1070.000000	94.074775
1069.000000	94.008345
1068.000000	93.929140
1067.000000	93.836299
1066.000000	93.733218
1065.000000	93.624081
1064.000000	93.513494
1063.000000	93.405586
1062.000000	93.301555
1061.000000	93.201661
1060.000000	93.109627
1059.000000	93.029524
1058.000000	92.958124
1057.000000	92.887045
1056.000000	92.813401
1055.000000	92.741454
1054.000000	92.672433
1053.000000	92.599997
1052.000000	92.518529
1051.000000	92.429439
1050.000000	92.336523
1049.000000	92.241600
1048.000000	92.146810
1047.000000	92.053519
1046.000000	91.957016
1045.000000	91.850123
1044.000000	91.734157
1043.000000	91.619470
1042.000000	91.513350
1041.000000	91.414010
1040.000000	91.318040
1039.000000	91.226587
1038.000000	91.141923
1037.000000	91.064373
1036.000000	90.994352
1035.000000	90.931278
1034.000000	90.870289
1033.000000	90.807593
1032.000000	90.749016
1031.000000	90.704643
1030.000000	90.674633
1029.000000	90.648895
1028.000000	90.621164
1027.000000	90.594069
1026.000000	90.569763
1025.000000	90.546238
1024.000000	90.524434
1023.000000	90.508343
1022.000000	90.495563
1021.000000	90.477897
1020.000000	90.454005
1019.000000	90.431387
1018.000000	90.412995
1017.000000	90.392362
1016.000000	90.365939
1015.000000	90.340417
1014.000000	90.322798
1013.000000	90.311289
1012.000000	90.300094
1011.000000	90.285996
1010.000000	90.267510
1009.000000	90.245567
1008.000000	90.227695
1007.000000	90.223145
1006.000000	90.230729
1005.000000	90.239235
1004.000000	90.242482
1003.000000	90.245845
1002.000000	90.255327
1001.000000	90.268921
1000.000000	90.281894
999.000000	90.292473
998.000000	90.299550
997.000000	90.302963
996.000000	90.308621
995.000000	90.324610
994.000000	90.349257
993.000000	90.371813
992.000000	90.388474
991.000000	90.408733
990.000000	90.441551
989.000000	90.484122
988.000000	90.529063
987.000000	90.574816
986.000000	90.623691
985.000000	90.676480
984.000000	90.734350
983.000000	90.800594
982.000000	90.876117
981.000000	90.957972
980.000000	91.045182
979.000000	91.140425
978.000000	91.243594
977.000000	91.349975
976.000000	91.457312
975.000000	91.568161
974.000000	91.682455
973.000000	91.794674
972.000000	91.902236
971.000000	92.010558
970.000000	92.125384
969.000000	92.245123
968.000000	92.364981
967.000000	92.484380
966.000000	92.605962
965.000000	92.730134
964.000000	92.854065
963.000000	92.973995
962.000000	93.086464
961.000000	93.189562
960.000000	93.284690
959.000000	93.375356
958.000000	93.463650
957.000000	93.549871
956.000000	93.635093
955.000000	93.720661
954.000000	93.805218
953.000000	93.885828
952.000000	93.961954
951.000000	94.034712
950.000000	94.102756
949.000000	94.163606
948.000000	94.218849
947.000000	94.272774
946.000000	94.325385
945.000000	94.372462
944.000000	94.413995
943.000000	94.456731
942.000000	94.505434
941.000000	94.555910
940.000000	94.599980
939.000000	94.634454
938.000000	94.663178
937.000000	94.693110
936.000000	94.730016
935.000000	94.775097
934.000000	94.823951
933.000000	94.870780
932.000000	94.914209
931.000000	94.956904
930.000000	95.000446
929.000000	95.044339
928.000000	95.089297
927.000000	95.136224
926.000000	95.181306
925.000000	95.217660
924.000000	95.244046
923.000000	95.267793
922.000000	95.296905
921.000000	95.332579
920.000000	95.370876
919.000000	95.407838
918.000000	95.441407
917.000000	95.472409
916.000000	95.505681
915.000000	95.546379
914.000000	95.593040
913.000000	95.637951
912.000000	95.676715
911.000000	95.713883
910.000000	95.756573
909.000000	95.806526
908.000000	95.862324
907.000000	95.926365
906.000000	96.004310
905.000000	96.097443
904.000000	96.198658
903.000000	96.297525
902.000000	96.389538
901.000000	96.479478
900.000000	96.574271
899.000000	96.672940
898.000000	96.766371
897.000000	96.848517
896.000000	96.924037
895.000000	97.001420
894.000000	97.081407
893.000000	97.157313
892.000000	97.225441
891.000000	97.289451
890.000000	97.354228
889.000000	97.420719
888.000000	97.487919
887.000000	97.554761
886.000000	97.618037
885.000000	97.673676
884.000000	97.723718
883.000000	97.778336
882.000000	97.846099
881.000000	97.923269
880.000000	97.996214
879.000000	98.054054
878.000000	98.097250
877.000000	98.135187
876.000000	98.177439
875.000000	98.226528
874.000000	98.277186
873.000000	98.322708
872.000000	98.362536
871.000000	98.402953
870.000000	98.450511
869.000000	98.506863
868.000000	98.570288
867.000000	98.638375
866.000000	98.706476
865.000000	98.766346
864.000000	98.810903
863.000000	98.841203
862.000000	98.866652
861.000000	98.897347
860.000000	98.936998
859.000000	98.982596
858.000000	99.028167
857.000000	99.068357
856.000000	99.101301
855.000000	99.130530
854.000000	99.163245
853.000000	99.204279
852.000000	99.251153
851.000000	99.295790
850.000000	99.330711
849.000000	99.353007
848.000000	99.363908
847.000000	99.367203
846.000000	99.367807
845.000000	99.368630
844.000000	99.367441
843.000000	99.358777
842.000000	99.340300
841.000000	99.315490
840.000000	99.289032
839.000000	99.262145
838.000000	99.234589
837.000000	99.208032
836.000000	99.183286
835.000000	99.156587
834.000000	99.124968
833.000000	99.095475
832.000000	99.081814
831.000000	99.087896
830.000000	99.099995
829.000000	99.101324
828.000000	99.091436
827.000000	99.084903
826.000000	99.092480
825.000000	99.110378
824.000000	99.128278
823.000000	99.140634
822.000000	99.147848
821.000000	99.151489
820.000000	99.150568
819.000000	99.139972
818.000000	99.112960
817.000000	99.068423
816.000000	99.014951
815.000000	98.963686
814.000000	98.916165
813.000000	98.861487
812.000000	98.784514
811.000000	98.673559
810.000000	98.522188
809.000000	98.329811
808.000000	98.101985
807.000000	97.846431
806.000000	97.568844
805.000000	97.277807
804.000000	96.992734
803.000000	96.737140
802.000000	96.520627
801.000000	96.336780
800.000000	96.183733
799.000000	96.076941
798.000000	96.033201
797.000000	96.048655
796.000000	96.100406
795.000000	96.166088
794.000000	96.236376
793.000000	96.311464
792.000000	96.390771
791.000000	96.465617
790.000000	96.520432
789.000000	96.543623
788.000000	96.537703
787.000000	96.514541
786.000000	96.479549
785.000000	96.425788
784.000000	96.346089
783.000000	96.245607
782.000000	96.139351
781.000000	96.043404
780.000000	95.972995
779.000000	95.942064
778.000000	95.955963
777.000000	96.006151
776.000000	96.077394
775.000000	96.159614
774.000000	96.250723
773.000000	96.351271
772.000000	96.459814
771.000000	96.571016
770.000000	96.675390
769.000000	96.763226
768.000000	96.831467
767.000000	96.884836
766.000000	96.928604
765.000000	96.963494
764.000000	96.990229
763.000000	97.015044
762.000000	97.045793
761.000000	97.084223
760.000000	97.125703
759.000000	97.165235
758.000000	97.201063
757.000000	97.234518
756.000000	97.269637
755.000000	97.311272
754.000000	97.360229
753.000000	97.411302
752.000000	97.458316
751.000000	97.499455
750.000000	97.535900
749.000000	97.568339
748.000000	97.598659
747.000000	97.632955
746.000000	97.677615
745.000000	97.732185
744.000000	97.790076
743.000000	97.847295
742.000000	97.907679
741.000000	97.978009
740.000000	98.059231
739.000000	98.143076
738.000000	98.216880
737.000000	98.272619
736.000000	98.313022
735.000000	98.349321
734.000000	98.392245
733.000000	98.444502
732.000000	98.499837
731.000000	98.546476
730.000000	98.572999
729.000000	98.576774
728.000000	98.569339
727.000000	98.569193
726.000000	98.585095
725.000000	98.609336
724.000000	98.630876
723.000000	98.650916
722.000000	98.679985
721.000000	98.722309
720.000000	98.769861
719.000000	98.811948
718.000000	98.844535
717.000000	98.869342
716.000000	98.890736
715.000000	98.915839
714.000000	98.951070
713.000000	98.994222
712.000000	99.034008
711.000000	99.061305
710.000000	99.077502
709.000000	99.088820
708.000000	99.095874
707.000000	99.093100
706.000000	99.077248
705.000000	99.051564
704.000000	99.020539
703.000000	98.982500
702.000000	98.928159
701.000000	98.846823
700.000000	98.735480
699.000000	98.602609
698.000000	98.463323
697.000000	98.332722
696.000000	98.226231
695.000000	98.162385
694.000000	98.156111
693.000000	98.205176
692.000000	98.286688
691.000000	98.372267
690.000000	98.446992
689.000000	98.510464
688.000000	98.564109
687.000000	98.606028
686.000000	98.637356
685.000000	98.664751
684.000000	98.693765
683.000000	98.725399
682.000000	98.761479
681.000000	98.807275
680.000000	98.863289
679.000000	98.917771
678.000000	98.955064
677.000000	98.972696
676.000000	98.985069
675.000000	99.007138
674.000000	99.036519
673.000000	99.056742
672.000000	99.058674
671.000000	99.054036
670.000000	99.065763
669.000000	99.109959
668.000000	99.172050
667.000000	99.208999
666.000000	99.211968
665.000000	99.209715
664.000000	99.219213
663.000000	99.237775
662.000000	99.254633
661.000000	99.263788
660.000000	99.267284
659.000000	99.269354
658.000000	99.271354
657.000000	99.271083
656.000000	99.265204
655.000000	99.253623
654.000000	99.241384
653.000000	99.234726
652.000000	99.237064
651.000000	99.250995
650.000000	99.279145
649.000000	99.317350
648.000000	99.350373
647.000000	99.363323
646.000000	99.359496
645.000000	99.357504
644.000000	99.367563
643.000000	99.381704
642.000000	99.393231
641.000000	99.415316
640.000000	99.466546
639.000000	99.541584
638.000000	99.611164
637.000000	99.653709
636.000000	99.670450
635.000000	99.672275
634.000000	99.671056
633.000000	99.683290
632.000000	99.721199
631.000000	99.771036
630.000000	99.795669
629.000000	99.774306
628.000000	99.729673
627.000000	99.704808
626.000000	99.717736
625.000000	99.751404
624.000000	99.788269
623.000000	99.834374
622.000000	99.901952
621.000000	99.983783
620.000000	100.055938
619.000000	100.097588
618.000000	100.100764
617.000000	100.067059
616.000000	100.005834
615.000000	99.940635
614.000000	99.904439
613.000000	99.912568
612.000000	99.945013
611.000000	99.961677
610.000000	99.936499
609.000000	99.875759
608.000000	99.803721
607.000000	99.739713
606.000000	99.689867
605.000000	99.650513
604.000000	99.611653
603.000000	99.560264
602.000000	99.494508
601.000000	99.440797
600.000000	99.444125
599.000000	99.523098
598.000000	99.633654
597.000000	99.700237
596.000000	99.691596
595.000000	99.649651
594.000000	99.639305
593.000000	99.677063
592.000000	99.723036
591.000000	99.736230
590.000000	99.720426
589.000000	99.706458
588.000000	99.704548
587.000000	99.694010
586.000000	99.659579
585.000000	99.627492
584.000000	99.650465
583.000000	99.752225
582.000000	99.893876
581.000000	100.008360
580.000000	100.062050
579.000000	100.065592
578.000000	100.040999
577.000000	100.000587
576.000000	99.959089
575.000000	99.940211
574.000000	99.950872
573.000000	99.963895
572.000000	99.944657
571.000000	99.884435
570.000000	99.800095
569.000000	99.710944
568.000000	99.629754
567.000000	99.570204
566.000000	99.536312
565.000000	99.505055
564.000000	99.441742
563.000000	99.336893
562.000000	99.221886
561.000000	99.139657
560.000000	99.102242
559.000000	99.076304
558.000000	99.007686
557.000000	98.873384
556.000000	98.707351
555.000000	98.566825
554.000000	98.472740
553.000000	98.402598
552.000000	98.341229
551.000000	98.303774
550.000000	98.299071
