PE IR       SUBTECH     SPECTRUM    ASCII       PEDS        4.00        
   -1
BH1 8-1 1 20_1.asc
24/05/17
15:22:51.00
24/05/17
15:23:28.00
Administrator
?品 026 用? Administrator 日期 Friday, May 17 2024
550.000000
#HDR
-1
-1
#GR
cm-1
%T
1.0
0.0
4000.000000
-1.000000
3451
8
98.956429
83.075049
#DATA
4000.000000	98.741910
3999.000000	98.737424
3998.000000	98.733789
3997.000000	98.731295
3996.000000	98.730190
3995.000000	98.730219
3994.000000	98.730570
3993.000000	98.730579
3992.000000	98.730496
3991.000000	98.731266
3990.000000	98.733522
3989.000000	98.736866
3988.000000	98.739928
3987.000000	98.741438
3986.000000	98.741145
3985.000000	98.739770
3984.000000	98.738428
3983.000000	98.737860
3982.000000	98.738074
3981.000000	98.738518
3980.000000	98.738473
3979.000000	98.737458
3978.000000	98.735502
3977.000000	98.733174
3976.000000	98.731274
3975.000000	98.730358
3974.000000	98.730421
3973.000000	98.730941
3972.000000	98.731208
3971.000000	98.730849
3970.000000	98.730135
3969.000000	98.729733
3968.000000	98.730047
3967.000000	98.730771
3966.000000	98.731158
3965.000000	98.730782
3964.000000	98.729901
3963.000000	98.729053
3962.000000	98.728441
3961.000000	98.727942
3960.000000	98.727573
3959.000000	98.727600
3958.000000	98.728094
3957.000000	98.728639
3956.000000	98.728747
3955.000000	98.728428
3954.000000	98.728162
3953.000000	98.728308
3952.000000	98.728741
3951.000000	98.729113
3950.000000	98.729289
3949.000000	98.729368
3948.000000	98.729360
3947.000000	98.729097
3946.000000	98.728659
3945.000000	98.728635
3944.000000	98.729525
3943.000000	98.730830
3942.000000	98.731292
3941.000000	98.730283
3940.000000	98.728462
3939.000000	98.727098
3938.000000	98.726739
3937.000000	98.726781
3936.000000	98.726276
3935.000000	98.724722
3934.000000	98.722135
3933.000000	98.718769
3932.000000	98.715270
3931.000000	98.712933
3930.000000	98.712809
3929.000000	98.714656
3928.000000	98.717018
3927.000000	98.718526
3926.000000	98.718907
3925.000000	98.718602
3924.000000	98.718055
3923.000000	98.717561
3922.000000	98.717419
3921.000000	98.717894
3920.000000	98.718915
3919.000000	98.719859
3918.000000	98.719850
3917.000000	98.718527
3916.000000	98.716568
3915.000000	98.715242
3914.000000	98.715218
3913.000000	98.715987
3912.000000	98.716277
3911.000000	98.715148
3910.000000	98.712645
3909.000000	98.709473
3908.000000	98.706371
3907.000000	98.703857
3906.000000	98.702139
3905.000000	98.700604
3904.000000	98.698023
3903.000000	98.694154
3902.000000	98.690599
3901.000000	98.689405
3900.000000	98.691051
3899.000000	98.694216
3898.000000	98.697252
3897.000000	98.699510
3896.000000	98.701123
3895.000000	98.702356
3894.000000	98.703260
3893.000000	98.703510
3892.000000	98.702537
3891.000000	98.700324
3890.000000	98.697753
3889.000000	98.695728
3888.000000	98.694561
3887.000000	98.693887
3886.000000	98.692811
3885.000000	98.691134
3884.000000	98.689894
3883.000000	98.690081
3882.000000	98.691557
3881.000000	98.693088
3880.000000	98.693568
3879.000000	98.693207
3878.000000	98.692808
3877.000000	98.692701
3876.000000	98.692681
3875.000000	98.692365
3874.000000	98.691613
3873.000000	98.690716
3872.000000	98.690090
3871.000000	98.689712
3870.000000	98.689135
3869.000000	98.688387
3868.000000	98.688168
3867.000000	98.688954
3866.000000	98.690456
3865.000000	98.691650
3864.000000	98.691709
3863.000000	98.690855
3862.000000	98.690006
3861.000000	98.689660
3860.000000	98.689548
3859.000000	98.689092
3858.000000	98.687902
3857.000000	98.686078
3856.000000	98.684366
3855.000000	98.683599
3854.000000	98.682931
3853.000000	98.680911
3852.000000	98.678940
3851.000000	98.679042
3850.000000	98.681336
3849.000000	98.684751
3848.000000	98.687963
3847.000000	98.690005
3846.000000	98.690433
3845.000000	98.689346
3844.000000	98.687384
3843.000000	98.685512
3842.000000	98.684430
3841.000000	98.684159
3840.000000	98.684098
3839.000000	98.683372
3838.000000	98.681884
3837.000000	98.680756
3836.000000	98.681028
3835.000000	98.682494
3834.000000	98.684140
3833.000000	98.685178
3832.000000	98.685590
3831.000000	98.686109
3830.000000	98.687479
3829.000000	98.689552
3828.000000	98.691052
3827.000000	98.690429
3826.000000	98.687172
3825.000000	98.682365
3824.000000	98.678136
3823.000000	98.676359
3822.000000	98.676176
3821.000000	98.674034
3820.000000	98.669088
3819.000000	98.664372
3818.000000	98.663044
3817.000000	98.665803
3816.000000	98.670366
3815.000000	98.674746
3814.000000	98.679326
3813.000000	98.684608
3812.000000	98.689915
3811.000000	98.694373
3810.000000	98.698038
3809.000000	98.701417
3808.000000	98.703445
3807.000000	98.701867
3806.000000	98.696770
3805.000000	98.690908
3804.000000	98.686669
3803.000000	98.684230
3802.000000	98.681381
3801.000000	98.677686
3800.000000	98.677111
3799.000000	98.682341
3798.000000	98.691337
3797.000000	98.699271
3796.000000	98.703010
3795.000000	98.703693
3794.000000	98.704314
3793.000000	98.705794
3792.000000	98.706440
3791.000000	98.704683
3790.000000	98.701162
3789.000000	98.698087
3788.000000	98.697113
3787.000000	98.698256
3786.000000	98.700317
3785.000000	98.701877
3784.000000	98.702114
3783.000000	98.701096
3782.000000	98.699559
3781.000000	98.698402
3780.000000	98.697958
3779.000000	98.697936
3778.000000	98.698127
3777.000000	98.698537
3776.000000	98.699071
3775.000000	98.699527
3774.000000	98.699861
3773.000000	98.700304
3772.000000	98.700919
3771.000000	98.700981
3770.000000	98.699432
3769.000000	98.696449
3768.000000	98.693611
3767.000000	98.692138
3766.000000	98.691752
3765.000000	98.691405
3764.000000	98.690652
3763.000000	98.690000
3762.000000	98.689957
3761.000000	98.690177
3760.000000	98.689592
3759.000000	98.687598
3758.000000	98.684708
3757.000000	98.681545
3756.000000	98.678068
3755.000000	98.674231
3754.000000	98.670887
3753.000000	98.669470
3752.000000	98.670189
3751.000000	98.671308
3750.000000	98.671396
3749.000000	98.670563
3748.000000	98.668982
3747.000000	98.666695
3746.000000	98.664187
3745.000000	98.661014
3744.000000	98.657192
3743.000000	98.655221
3742.000000	98.656045
3741.000000	98.657497
3740.000000	98.657175
3739.000000	98.654734
3738.000000	98.652348
3737.000000	98.652388
3736.000000	98.654361
3735.000000	98.655446
3734.000000	98.654240
3733.000000	98.651674
3732.000000	98.648840
3731.000000	98.646294
3730.000000	98.644737
3729.000000	98.645081
3728.000000	98.647435
3727.000000	98.649885
3726.000000	98.649536
3725.000000	98.645381
3724.000000	98.639416
3723.000000	98.635066
3722.000000	98.634633
3721.000000	98.638147
3720.000000	98.643481
3719.000000	98.647496
3718.000000	98.647824
3717.000000	98.643707
3716.000000	98.635867
3715.000000	98.626132
3714.000000	98.616649
3713.000000	98.608595
3712.000000	98.601104
3711.000000	98.593004
3710.000000	98.585497
3709.000000	98.580764
3708.000000	98.579363
3707.000000	98.580072
3706.000000	98.581414
3705.000000	98.582947
3704.000000	98.584797
3703.000000	98.585894
3702.000000	98.583746
3701.000000	98.577513
3700.000000	98.569859
3699.000000	98.564132
3698.000000	98.560989
3697.000000	98.558322
3696.000000	98.553462
3695.000000	98.545296
3694.000000	98.534208
3693.000000	98.521583
3692.000000	98.510296
3691.000000	98.503907
3690.000000	98.502290
3689.000000	98.499903
3688.000000	98.493427
3687.000000	98.485936
3686.000000	98.481520
3685.000000	98.480840
3684.000000	98.481158
3683.000000	98.478617
3682.000000	98.471322
3681.000000	98.460059
3680.000000	98.446438
3679.000000	98.431737
3678.000000	98.417352
3677.000000	98.404030
3676.000000	98.387777
3675.000000	98.366556
3674.000000	98.346978
3673.000000	98.333916
3672.000000	98.325926
3671.000000	98.318957
3670.000000	98.309510
3669.000000	98.300319
3668.000000	98.297101
3667.000000	98.299514
3666.000000	98.301494
3665.000000	98.297424
3664.000000	98.285700
3663.000000	98.268379
3662.000000	98.248928
3661.000000	98.229702
3660.000000	98.211587
3659.000000	98.195408
3658.000000	98.182301
3657.000000	98.171682
3656.000000	98.161053
3655.000000	98.149154
3654.000000	98.136144
3653.000000	98.121910
3652.000000	98.106382
3651.000000	98.089462
3650.000000	98.070099
3649.000000	98.049795
3648.000000	98.034830
3647.000000	98.029925
3646.000000	98.033542
3645.000000	98.040381
3644.000000	98.044771
3643.000000	98.043324
3642.000000	98.037020
3641.000000	98.030365
3640.000000	98.027238
3639.000000	98.026949
3638.000000	98.025553
3637.000000	98.020455
3636.000000	98.012054
3635.000000	98.001276
3634.000000	97.987343
3633.000000	97.969560
3632.000000	97.950099
3631.000000	97.934244
3630.000000	97.924414
3629.000000	97.914824
3628.000000	97.903459
3627.000000	97.896833
3626.000000	97.897307
3625.000000	97.901079
3624.000000	97.904815
3623.000000	97.908827
3622.000000	97.915745
3621.000000	97.926236
3620.000000	97.936068
3619.000000	97.940045
3618.000000	97.939681
3617.000000	97.941292
3616.000000	97.948571
3615.000000	97.960688
3614.000000	97.973578
3613.000000	97.982279
3612.000000	97.984238
3611.000000	97.980730
3610.000000	97.975735
3609.000000	97.973706
3608.000000	97.976935
3607.000000	97.984533
3606.000000	97.993962
3605.000000	98.003129
3604.000000	98.011670
3603.000000	98.020223
3602.000000	98.028542
3601.000000	98.034781
3600.000000	98.037267
3599.000000	98.036718
3598.000000	98.036115
3597.000000	98.038333
3596.000000	98.043977
3595.000000	98.051074
3594.000000	98.056757
3593.000000	98.059595
3592.000000	98.059673
3591.000000	98.057283
3590.000000	98.052667
3589.000000	98.046766
3588.000000	98.041482
3587.000000	98.039615
3586.000000	98.043329
3585.000000	98.051318
3584.000000	98.059357
3583.000000	98.063922
3582.000000	98.064354
3581.000000	98.062071
3580.000000	98.058336
3579.000000	98.053135
3578.000000	98.046263
3577.000000	98.039181
3576.000000	98.034877
3575.000000	98.035508
3574.000000	98.040269
3573.000000	98.045623
3572.000000	98.047620
3571.000000	98.044099
3570.000000	98.035483
3569.000000	98.024580
3568.000000	98.015084
3567.000000	98.009246
3566.000000	98.007194
3565.000000	98.007554
3564.000000	98.008545
3563.000000	98.009312
3562.000000	98.010252
3561.000000	98.012164
3560.000000	98.015225
3559.000000	98.018610
3558.000000	98.020847
3557.000000	98.020648
3556.000000	98.017712
3555.000000	98.012961
3554.000000	98.007915
3553.000000	98.003573
3552.000000	98.000117
3551.000000	97.997624
3550.000000	97.996405
3549.000000	97.996431
3548.000000	97.996870
3547.000000	97.996576
3546.000000	97.995174
3545.000000	97.993380
3544.000000	97.992104
3543.000000	97.991735
3542.000000	97.992357
3541.000000	97.994001
3540.000000	97.996286
3539.000000	97.998090
3538.000000	97.998147
3537.000000	97.996065
3536.000000	97.992832
3535.000000	97.990181
3534.000000	97.989100
3533.000000	97.989030
3532.000000	97.988497
3531.000000	97.986563
3530.000000	97.983679
3529.000000	97.981196
3528.000000	97.980146
3527.000000	97.980588
3526.000000	97.981998
3525.000000	97.983858
3524.000000	97.985644
3523.000000	97.986785
3522.000000	97.987073
3521.000000	97.986958
3520.000000	97.987202
3519.000000	97.988039
3518.000000	97.988755
3517.000000	97.988238
3516.000000	97.985963
3515.000000	97.982365
3514.000000	97.978443
3513.000000	97.975127
3512.000000	97.973020
3511.000000	97.972285
3510.000000	97.972354
3509.000000	97.972036
3508.000000	97.970518
3507.000000	97.968426
3506.000000	97.967513
3505.000000	97.969034
3504.000000	97.972451
3503.000000	97.975854
3502.000000	97.977798
3501.000000	97.978272
3500.000000	97.977947
3499.000000	97.977331
3498.000000	97.976747
3497.000000	97.976479
3496.000000	97.976471
3495.000000	97.976114
3494.000000	97.974766
3493.000000	97.972357
3492.000000	97.969303
3491.000000	97.966095
3490.000000	97.963226
3489.000000	97.961301
3488.000000	97.960720
3487.000000	97.961004
3486.000000	97.960777
3485.000000	97.958844
3484.000000	97.955294
3483.000000	97.951517
3482.000000	97.949016
3481.000000	97.948080
3480.000000	97.947693
3479.000000	97.946598
3478.000000	97.944493
3477.000000	97.942168
3476.000000	97.940636
3475.000000	97.940159
3474.000000	97.940062
3473.000000	97.939334
3472.000000	97.937498
3471.000000	97.934940
3470.000000	97.932586
3469.000000	97.931128
3468.000000	97.930517
3467.000000	97.930130
3466.000000	97.929398
3465.000000	97.928264
3464.000000	97.927030
3463.000000	97.925891
3462.000000	97.924740
3461.000000	97.923394
3460.000000	97.921884
3459.000000	97.920445
3458.000000	97.919249
3457.000000	97.918198
3456.000000	97.916987
3455.000000	97.915390
3454.000000	97.913478
3453.000000	97.911570
3452.000000	97.909949
3451.000000	97.908654
3450.000000	97.907511
3449.000000	97.906325
3448.000000	97.904974
3447.000000	97.903361
3446.000000	97.901423
3445.000000	97.899264
3444.000000	97.897194
3443.000000	97.895492
3442.000000	97.894122
3441.000000	97.892753
3440.000000	97.891199
3439.000000	97.889758
3438.000000	97.888956
3437.000000	97.888912
3436.000000	97.889095
3435.000000	97.888861
3434.000000	97.888249
3433.000000	97.887870
3432.000000	97.887907
3431.000000	97.887612
3430.000000	97.886104
3429.000000	97.883430
3428.000000	97.880415
3427.000000	97.877587
3426.000000	97.874882
3425.000000	97.872362
3424.000000	97.870557
3423.000000	97.869730
3422.000000	97.869122
3421.000000	97.867516
3420.000000	97.864601
3419.000000	97.861484
3418.000000	97.859674
3417.000000	97.859813
3416.000000	97.861379
3415.000000	97.863213
3414.000000	97.864361
3413.000000	97.864524
3412.000000	97.863858
3411.000000	97.862569
3410.000000	97.860759
3409.000000	97.858631
3408.000000	97.856686
3407.000000	97.855422
3406.000000	97.854807
3405.000000	97.854264
3404.000000	97.853383
3403.000000	97.852536
3402.000000	97.852518
3401.000000	97.853653
3400.000000	97.855479
3399.000000	97.857181
3398.000000	97.858155
3397.000000	97.858198
3396.000000	97.857430
3395.000000	97.856246
3394.000000	97.855211
3393.000000	97.854711
3392.000000	97.854656
3391.000000	97.854590
3390.000000	97.854174
3389.000000	97.853537
3388.000000	97.853134
3387.000000	97.853286
3386.000000	97.853918
3385.000000	97.854732
3384.000000	97.855523
3383.000000	97.856187
3382.000000	97.856487
3381.000000	97.856078
3380.000000	97.854968
3379.000000	97.853895
3378.000000	97.853920
3377.000000	97.855494
3376.000000	97.858138
3375.000000	97.860886
3374.000000	97.862961
3373.000000	97.864104
3372.000000	97.864442
3371.000000	97.864289
3370.000000	97.864024
3369.000000	97.863992
3368.000000	97.864479
3367.000000	97.865708
3366.000000	97.867683
3365.000000	97.869983
3364.000000	97.871886
3363.000000	97.872906
3362.000000	97.873220
3361.000000	97.873572
3360.000000	97.874677
3359.000000	97.876707
3358.000000	97.879234
3357.000000	97.881547
3356.000000	97.883137
3355.000000	97.883968
3354.000000	97.884382
3353.000000	97.884726
3352.000000	97.885128
3351.000000	97.885678
3350.000000	97.886631
3349.000000	97.888171
3348.000000	97.890061
3347.000000	97.891798
3346.000000	97.893236
3345.000000	97.894768
3344.000000	97.896720
3343.000000	97.898731
3342.000000	97.900014
3341.000000	97.900232
3340.000000	97.900028
3339.000000	97.900577
3338.000000	97.902466
3337.000000	97.904959
3336.000000	97.906464
3335.000000	97.905958
3334.000000	97.904005
3333.000000	97.902361
3332.000000	97.902218
3331.000000	97.903073
3330.000000	97.903529
3329.000000	97.903154
3328.000000	97.903162
3327.000000	97.905005
3326.000000	97.908696
3325.000000	97.912733
3324.000000	97.915579
3323.000000	97.917063
3322.000000	97.918099
3321.000000	97.919298
3320.000000	97.920244
3319.000000	97.920300
3318.000000	97.919778
3317.000000	97.919803
3316.000000	97.921019
3315.000000	97.922953
3314.000000	97.924861
3313.000000	97.926771
3312.000000	97.929347
3311.000000	97.932898
3310.000000	97.936788
3309.000000	97.939792
3308.000000	97.941061
3307.000000	97.940982
3306.000000	97.941232
3305.000000	97.943508
3304.000000	97.947909
3303.000000	97.952721
3302.000000	97.956185
3301.000000	97.958190
3300.000000	97.959746
3299.000000	97.961161
3298.000000	97.961562
3297.000000	97.960327
3296.000000	97.958115
3295.000000	97.956068
3294.000000	97.954463
3293.000000	97.952886
3292.000000	97.951578
3291.000000	97.951838
3290.000000	97.954699
3289.000000	97.959500
3288.000000	97.964066
3287.000000	97.966736
3286.000000	97.967959
3285.000000	97.969496
3284.000000	97.972189
3283.000000	97.974943
3282.000000	97.976214
3281.000000	97.975999
3280.000000	97.975766
3279.000000	97.976541
3278.000000	97.977761
3277.000000	97.978240
3276.000000	97.977618
3275.000000	97.976567
3274.000000	97.976028
3273.000000	97.976591
3272.000000	97.978289
3271.000000	97.980510
3270.000000	97.982297
3269.000000	97.983201
3268.000000	97.983753
3267.000000	97.984788
3266.000000	97.986463
3265.000000	97.988299
3264.000000	97.990003
3263.000000	97.991667
3262.000000	97.993115
3261.000000	97.993753
3260.000000	97.993347
3259.000000	97.992492
3258.000000	97.992033
3257.000000	97.992227
3256.000000	97.992844
3255.000000	97.993840
3254.000000	97.995427
3253.000000	97.997476
3252.000000	97.999317
3251.000000	98.000433
3250.000000	98.001178
3249.000000	98.002445
3248.000000	98.004621
3247.000000	98.006998
3246.000000	98.008367
3245.000000	98.008261
3244.000000	98.007530
3243.000000	98.007589
3242.000000	98.009040
3241.000000	98.011308
3240.000000	98.013476
3239.000000	98.015350
3238.000000	98.017408
3237.000000	98.019974
3236.000000	98.022858
3235.000000	98.025703
3234.000000	98.028273
3233.000000	98.030308
3232.000000	98.031505
3231.000000	98.031908
3230.000000	98.032154
3229.000000	98.032985
3228.000000	98.034524
3227.000000	98.036286
3226.000000	98.037863
3225.000000	98.039400
3224.000000	98.041320
3223.000000	98.043771
3222.000000	98.046504
3221.000000	98.049160
3220.000000	98.051472
3219.000000	98.053208
3218.000000	98.054233
3217.000000	98.054843
3216.000000	98.055842
3215.000000	98.057886
3214.000000	98.060686
3213.000000	98.063106
3212.000000	98.064261
3211.000000	98.064298
3210.000000	98.064082
3209.000000	98.064336
3208.000000	98.065262
3207.000000	98.066827
3206.000000	98.068906
3205.000000	98.071069
3204.000000	98.072640
3203.000000	98.073238
3202.000000	98.073156
3201.000000	98.073087
3200.000000	98.073663
3199.000000	98.075263
3198.000000	98.077910
3197.000000	98.081160
3196.000000	98.084246
3195.000000	98.086735
3194.000000	98.088910
3193.000000	98.091269
3192.000000	98.093757
3191.000000	98.095766
3190.000000	98.096910
3189.000000	98.097519
3188.000000	98.098276
3187.000000	98.099560
3186.000000	98.101319
3185.000000	98.103263
3184.000000	98.104978
3183.000000	98.106067
3182.000000	98.106505
3181.000000	98.106808
3180.000000	98.107613
3179.000000	98.109046
3178.000000	98.110752
3177.000000	98.112563
3176.000000	98.114826
3175.000000	98.117839
3174.000000	98.121126
3173.000000	98.123683
3172.000000	98.125088
3171.000000	98.126034
3170.000000	98.127526
3169.000000	98.129725
3168.000000	98.131983
3167.000000	98.133973
3166.000000	98.136220
3165.000000	98.139246
3164.000000	98.142582
3163.000000	98.145170
3162.000000	98.146600
3161.000000	98.147513
3160.000000	98.148691
3159.000000	98.150151
3158.000000	98.151332
3157.000000	98.151868
3156.000000	98.151929
3155.000000	98.151974
3154.000000	98.152302
3153.000000	98.152961
3152.000000	98.154081
3151.000000	98.156094
3150.000000	98.159371
3149.000000	98.163516
3148.000000	98.167258
3147.000000	98.169502
3146.000000	98.170449
3145.000000	98.171469
3144.000000	98.173850
3143.000000	98.177765
3142.000000	98.182289
3141.000000	98.186187
3140.000000	98.188884
3139.000000	98.190878
3138.000000	98.193222
3137.000000	98.196353
3136.000000	98.199514
3135.000000	98.201622
3134.000000	98.202583
3133.000000	98.203373
3132.000000	98.204877
3131.000000	98.207067
3130.000000	98.209474
3129.000000	98.211880
3128.000000	98.214182
3127.000000	98.216037
3126.000000	98.217165
3125.000000	98.217792
3124.000000	98.218396
3123.000000	98.219149
3122.000000	98.219979
3121.000000	98.221050
3120.000000	98.222745
3119.000000	98.225138
3118.000000	98.227778
3117.000000	98.230074
3116.000000	98.231811
3115.000000	98.233192
3114.000000	98.234572
3113.000000	98.236196
3112.000000	98.238052
3111.000000	98.239950
3110.000000	98.241710
3109.000000	98.243310
3108.000000	98.244841
3107.000000	98.246384
3106.000000	98.247952
3105.000000	98.249515
3104.000000	98.251048
3103.000000	98.252549
3102.000000	98.254032
3101.000000	98.255501
3100.000000	98.256956
3099.000000	98.258398
3098.000000	98.259831
3097.000000	98.261259
3096.000000	98.262684
3095.000000	98.264106
3094.000000	98.265526
3093.000000	98.266949
3092.000000	98.268382
3091.000000	98.269826
3090.000000	98.271281
3089.000000	98.272741
3088.000000	98.274203
3087.000000	98.275658
3086.000000	98.277104
3085.000000	98.278537
3084.000000	98.279962
3083.000000	98.281391
3082.000000	98.282835
3081.000000	98.284302
3080.000000	98.285795
3079.000000	98.287310
3078.000000	98.288836
3077.000000	98.290357
3076.000000	98.291861
3075.000000	98.293351
3074.000000	98.294836
3073.000000	98.296324
3072.000000	98.297821
3071.000000	98.299321
3070.000000	98.300813
3069.000000	98.302291
3068.000000	98.303756
3067.000000	98.305212
3066.000000	98.306675
3065.000000	98.308164
3064.000000	98.309688
3063.000000	98.311246
3062.000000	98.312847
3061.000000	98.314475
3060.000000	98.316041
3059.000000	98.317441
3058.000000	98.318686
3057.000000	98.319967
3056.000000	98.321470
3055.000000	98.323192
3054.000000	98.324952
3053.000000	98.326606
3052.000000	98.328177
3051.000000	98.329736
3050.000000	98.331247
3049.000000	98.332589
3048.000000	98.333727
3047.000000	98.334796
3046.000000	98.335985
3045.000000	98.337313
3044.000000	98.338597
3043.000000	98.339736
3042.000000	98.341017
3041.000000	98.342904
3040.000000	98.345533
3039.000000	98.348509
3038.000000	98.351178
3037.000000	98.353156
3036.000000	98.354436
3035.000000	98.355241
3034.000000	98.355919
3033.000000	98.356872
3032.000000	98.358310
3031.000000	98.360003
3030.000000	98.361428
3029.000000	98.362287
3028.000000	98.362856
3027.000000	98.363781
3026.000000	98.365518
3025.000000	98.367950
3024.000000	98.370500
3023.000000	98.372570
3022.000000	98.373892
3021.000000	98.374653
3020.000000	98.375387
3019.000000	98.376559
3018.000000	98.378249
3017.000000	98.380369
3016.000000	98.383159
3015.000000	98.387094
3014.000000	98.392087
3013.000000	98.396953
3012.000000	98.400170
3011.000000	98.401313
3010.000000	98.401585
3009.000000	98.402645
3008.000000	98.404829
3007.000000	98.406732
3006.000000	98.406721
3005.000000	98.404753
3004.000000	98.402616
3003.000000	98.402385
3002.000000	98.404723
3001.000000	98.408504
3000.000000	98.411897
2999.000000	98.413908
2998.000000	98.415052
2997.000000	98.416588
2996.000000	98.419098
2995.000000	98.421920
2994.000000	98.423984
2993.000000	98.424999
2992.000000	98.425762
2991.000000	98.427602
2990.000000	98.431573
2989.000000	98.437561
2988.000000	98.443581
2987.000000	98.446450
2986.000000	98.444266
2985.000000	98.438664
2984.000000	98.434231
2983.000000	98.435025
2982.000000	98.441468
2981.000000	98.450397
2980.000000	98.457660
2979.000000	98.460635
2978.000000	98.459036
2977.000000	98.454472
2976.000000	98.449525
2975.000000	98.446301
2974.000000	98.444912
2973.000000	98.443257
2972.000000	98.438758
2971.000000	98.430721
2970.000000	98.420968
2969.000000	98.411965
2968.000000	98.404280
2967.000000	98.396186
2966.000000	98.385943
2965.000000	98.374061
2964.000000	98.362988
2963.000000	98.354819
2962.000000	98.349800
2961.000000	98.346908
2960.000000	98.345083
2959.000000	98.343498
2958.000000	98.341264
2957.000000	98.337745
2956.000000	98.333256
2955.000000	98.328818
2954.000000	98.325068
2953.000000	98.321978
2952.000000	98.319925
2951.000000	98.320278
2950.000000	98.323886
2949.000000	98.329092
2948.000000	98.332457
2947.000000	98.332240
2946.000000	98.330608
2945.000000	98.331432
2944.000000	98.336021
2943.000000	98.341879
2942.000000	98.345770
2941.000000	98.346877
2940.000000	98.346156
2939.000000	98.343420
2938.000000	98.336537
2937.000000	98.324070
2936.000000	98.308115
2935.000000	98.293754
2934.000000	98.285307
2933.000000	98.283139
2932.000000	98.283676
2931.000000	98.282250
2930.000000	98.276357
2929.000000	98.266987
2928.000000	98.257489
2927.000000	98.251060
2926.000000	98.248779
2925.000000	98.249403
2924.000000	98.251082
2923.000000	98.253374
2922.000000	98.257268
2921.000000	98.263159
2920.000000	98.269544
2919.000000	98.274452
2918.000000	98.277989
2917.000000	98.282527
2916.000000	98.290209
2915.000000	98.300900
2914.000000	98.312664
2913.000000	98.323523
2912.000000	98.332481
2911.000000	98.339614
2910.000000	98.345934
2909.000000	98.352757
2908.000000	98.360418
2907.000000	98.367818
2906.000000	98.373937
2905.000000	98.379538
2904.000000	98.386449
2903.000000	98.394818
2902.000000	98.402090
2901.000000	98.405337
2900.000000	98.403995
2899.000000	98.400286
2898.000000	98.397408
2897.000000	98.397824
2896.000000	98.402607
2895.000000	98.411167
2894.000000	98.421295
2893.000000	98.430235
2892.000000	98.436186
2891.000000	98.438728
2890.000000	98.438185
2889.000000	98.435494
2888.000000	98.432922
2887.000000	98.433651
2886.000000	98.439354
2885.000000	98.448194
2884.000000	98.455999
2883.000000	98.459598
2882.000000	98.458666
2881.000000	98.454932
2880.000000	98.450636
2879.000000	98.447661
2878.000000	98.446923
2877.000000	98.447726
2876.000000	98.448182
2875.000000	98.446988
2874.000000	98.444520
2873.000000	98.441815
2872.000000	98.439035
2871.000000	98.435877
2870.000000	98.433319
2869.000000	98.433800
2868.000000	98.438925
2867.000000	98.447256
2866.000000	98.454707
2865.000000	98.457418
2864.000000	98.454435
2863.000000	98.448002
2862.000000	98.441573
2861.000000	98.437327
2860.000000	98.435310
2859.000000	98.434448
2858.000000	98.433777
2857.000000	98.432697
2856.000000	98.430962
2855.000000	98.429059
2854.000000	98.428209
2853.000000	98.429351
2852.000000	98.432331
2851.000000	98.436481
2850.000000	98.441599
2849.000000	98.447704
2848.000000	98.454112
2847.000000	98.459601
2846.000000	98.463648
2845.000000	98.467072
2844.000000	98.471480
2843.000000	98.478243
2842.000000	98.487513
2841.000000	98.497675
2840.000000	98.506153
2839.000000	98.511588
2838.000000	98.514992
2837.000000	98.518174
2836.000000	98.521506
2835.000000	98.524166
2834.000000	98.526131
2833.000000	98.528520
2832.000000	98.531908
2831.000000	98.535615
2830.000000	98.539019
2829.000000	98.542363
2828.000000	98.545650
2827.000000	98.547762
2826.000000	98.547663
2825.000000	98.546103
2824.000000	98.545348
2823.000000	98.547165
2822.000000	98.551313
2821.000000	98.555808
2820.000000	98.558667
2819.000000	98.559633
2818.000000	98.560228
2817.000000	98.561809
2816.000000	98.563818
2815.000000	98.564650
2814.000000	98.563983
2813.000000	98.563299
2812.000000	98.563966
2811.000000	98.565630
2810.000000	98.566845
2809.000000	98.566713
2808.000000	98.565644
2807.000000	98.564982
2806.000000	98.566042
2805.000000	98.569074
2804.000000	98.572898
2803.000000	98.575854
2802.000000	98.577380
2801.000000	98.578245
2800.000000	98.579267
2799.000000	98.580363
2798.000000	98.581090
2797.000000	98.581525
2796.000000	98.582195
2795.000000	98.583530
2794.000000	98.585800
2793.000000	98.589183
2792.000000	98.593335
2791.000000	98.597056
2790.000000	98.599045
2789.000000	98.599107
2788.000000	98.598342
2787.000000	98.598144
2786.000000	98.598929
2785.000000	98.600066
2784.000000	98.600871
2783.000000	98.601463
2782.000000	98.602591
2781.000000	98.604638
2780.000000	98.606975
2779.000000	98.608519
2778.000000	98.608939
2777.000000	98.608943
2776.000000	98.609399
2775.000000	98.610377
2774.000000	98.611331
2773.000000	98.611903
2772.000000	98.612194
2771.000000	98.612374
2770.000000	98.612377
2769.000000	98.612088
2768.000000	98.611655
2767.000000	98.611523
2766.000000	98.612173
2765.000000	98.613770
2764.000000	98.616023
2763.000000	98.618340
2762.000000	98.620220
2761.000000	98.621469
2760.000000	98.622084
2759.000000	98.622177
2758.000000	98.622054
2757.000000	98.622122
2756.000000	98.622520
2755.000000	98.622969
2754.000000	98.623152
2753.000000	98.623130
2752.000000	98.623262
2751.000000	98.623812
2750.000000	98.624751
2749.000000	98.625810
2748.000000	98.626613
2747.000000	98.626909
2746.000000	98.626873
2745.000000	98.627088
2744.000000	98.628010
2743.000000	98.629540
2742.000000	98.631157
2741.000000	98.632415
2740.000000	98.633125
2739.000000	98.633223
2738.000000	98.632828
2737.000000	98.632372
2736.000000	98.632340
2735.000000	98.632829
2734.000000	98.633541
2733.000000	98.634168
2732.000000	98.634638
2731.000000	98.635017
2730.000000	98.635390
2729.000000	98.635902
2728.000000	98.636677
2727.000000	98.637607
2726.000000	98.638397
2725.000000	98.638907
2724.000000	98.639281
2723.000000	98.639677
2722.000000	98.640103
2721.000000	98.640627
2720.000000	98.641482
2719.000000	98.642748
2718.000000	98.644162
2717.000000	98.645435
2716.000000	98.646572
2715.000000	98.647645
2714.000000	98.648470
2713.000000	98.648800
2712.000000	98.648779
2711.000000	98.648942
2710.000000	98.649662
2709.000000	98.650766
2708.000000	98.651741
2707.000000	98.652305
2706.000000	98.652671
2705.000000	98.653254
2704.000000	98.654085
2703.000000	98.654712
2702.000000	98.654785
2701.000000	98.654629
2700.000000	98.654954
2699.000000	98.655976
2698.000000	98.657148
2697.000000	98.657818
2696.000000	98.657936
2695.000000	98.657962
2694.000000	98.658287
2693.000000	98.658927
2692.000000	98.659684
2691.000000	98.660387
2690.000000	98.660990
2689.000000	98.661567
2688.000000	98.662211
2687.000000	98.662856
2686.000000	98.663223
2685.000000	98.663048
2684.000000	98.662328
2683.000000	98.661342
2682.000000	98.660537
2681.000000	98.660253
2680.000000	98.660519
2679.000000	98.661051
2678.000000	98.661483
2677.000000	98.661649
2676.000000	98.661569
2675.000000	98.661268
2674.000000	98.660792
2673.000000	98.660422
2672.000000	98.660598
2671.000000	98.661547
2670.000000	98.663084
2669.000000	98.664759
2668.000000	98.666035
2667.000000	98.666393
2666.000000	98.665612
2665.000000	98.664119
2664.000000	98.662778
2663.000000	98.662059
2662.000000	98.661739
2661.000000	98.661552
2660.000000	98.661741
2659.000000	98.662568
2658.000000	98.663651
2657.000000	98.664299
2656.000000	98.664239
2655.000000	98.663574
2654.000000	98.662363
2653.000000	98.660831
2652.000000	98.659753
2651.000000	98.659843
2650.000000	98.660751
2649.000000	98.661334
2648.000000	98.661147
2647.000000	98.661171
2646.000000	98.662692
2645.000000	98.665671
2644.000000	98.668542
2643.000000	98.669717
2642.000000	98.669133
2641.000000	98.668254
2640.000000	98.668547
2639.000000	98.670001
2638.000000	98.671378
2637.000000	98.671700
2636.000000	98.671005
2635.000000	98.669655
2634.000000	98.667602
2633.000000	98.664794
2632.000000	98.661883
2631.000000	98.659879
2630.000000	98.659080
2629.000000	98.658767
2628.000000	98.658026
2627.000000	98.656624
2626.000000	98.655008
2625.000000	98.653758
2624.000000	98.653205
2623.000000	98.653451
2622.000000	98.654430
2621.000000	98.655796
2620.000000	98.656861
2619.000000	98.657020
2618.000000	98.656517
2617.000000	98.656599
2616.000000	98.658429
2615.000000	98.661741
2614.000000	98.664757
2613.000000	98.665712
2612.000000	98.664364
2611.000000	98.661962
2610.000000	98.660094
2609.000000	98.659555
2608.000000	98.660191
2607.000000	98.661356
2606.000000	98.662399
2605.000000	98.663040
2604.000000	98.663546
2603.000000	98.664523
2602.000000	98.666335
2601.000000	98.668629
2600.000000	98.670499
2599.000000	98.671261
2598.000000	98.670982
2597.000000	98.670301
2596.000000	98.669884
2595.000000	98.670017
2594.000000	98.670624
2593.000000	98.671368
2592.000000	98.671740
2591.000000	98.671406
2590.000000	98.670563
2589.000000	98.669845
2588.000000	98.669740
2587.000000	98.670222
2586.000000	98.671005
2585.000000	98.671858
2584.000000	98.672558
2583.000000	98.672807
2582.000000	98.672531
2581.000000	98.672131
2580.000000	98.672118
2579.000000	98.672508
2578.000000	98.672817
2577.000000	98.672673
2576.000000	98.672170
2575.000000	98.671632
2574.000000	98.671285
2573.000000	98.671246
2572.000000	98.671555
2571.000000	98.672035
2570.000000	98.672291
2569.000000	98.672095
2568.000000	98.671687
2567.000000	98.671552
2566.000000	98.671957
2565.000000	98.672786
2564.000000	98.673698
2563.000000	98.674387
2562.000000	98.674782
2561.000000	98.674982
2560.000000	98.674912
2559.000000	98.674159
2558.000000	98.672413
2557.000000	98.670037
2556.000000	98.668036
2555.000000	98.667193
2554.000000	98.667548
2553.000000	98.668693
2552.000000	98.670199
2551.000000	98.671672
2550.000000	98.672698
2549.000000	98.673058
2548.000000	98.672962
2547.000000	98.672867
2546.000000	98.673054
2545.000000	98.673441
2544.000000	98.673718
2543.000000	98.673604
2542.000000	98.673159
2541.000000	98.672881
2540.000000	98.673282
2539.000000	98.674240
2538.000000	98.674995
2537.000000	98.674979
2536.000000	98.674435
2535.000000	98.674046
2534.000000	98.674105
2533.000000	98.674383
2532.000000	98.674663
2531.000000	98.675031
2530.000000	98.675637
2529.000000	98.676533
2528.000000	98.677769
2527.000000	98.679306
2526.000000	98.680790
2525.000000	98.681738
2524.000000	98.682037
2523.000000	98.682041
2522.000000	98.682176
2521.000000	98.682553
2520.000000	98.683068
2519.000000	98.683642
2518.000000	98.684190
2517.000000	98.684573
2516.000000	98.684759
2515.000000	98.685002
2514.000000	98.685641
2513.000000	98.686735
2512.000000	98.688009
2511.000000	98.689087
2510.000000	98.689804
2509.000000	98.690239
2508.000000	98.690601
2507.000000	98.691058
2506.000000	98.691641
2505.000000	98.692295
2504.000000	98.692953
2503.000000	98.693567
2502.000000	98.694112
2501.000000	98.694604
2500.000000	98.695098
2499.000000	98.695624
2498.000000	98.696143
2497.000000	98.696633
2496.000000	98.697191
2495.000000	98.697956
2494.000000	98.698913
2493.000000	98.699840
2492.000000	98.700513
2491.000000	98.700892
2490.000000	98.701099
2489.000000	98.701252
2488.000000	98.701376
2487.000000	98.701462
2486.000000	98.701541
2485.000000	98.701689
2484.000000	98.701953
2483.000000	98.702291
2482.000000	98.702627
2481.000000	98.702960
2480.000000	98.703384
2479.000000	98.703959
2478.000000	98.704592
2477.000000	98.705085
2476.000000	98.705338
2475.000000	98.705477
2474.000000	98.705778
2473.000000	98.706416
2472.000000	98.707243
2471.000000	98.707838
2470.000000	98.707929
2469.000000	98.707743
2468.000000	98.707861
2467.000000	98.708628
2466.000000	98.709865
2465.000000	98.711113
2464.000000	98.712071
2463.000000	98.712657
2462.000000	98.712788
2461.000000	98.712401
2460.000000	98.711690
2459.000000	98.711101
2458.000000	98.710971
2457.000000	98.711305
2456.000000	98.711881
2455.000000	98.712467
2454.000000	98.712932
2453.000000	98.713263
2452.000000	98.713564
2451.000000	98.713980
2450.000000	98.714615
2449.000000	98.715520
2448.000000	98.716685
2447.000000	98.717925
2446.000000	98.718866
2445.000000	98.719224
2444.000000	98.719081
2443.000000	98.718811
2442.000000	98.718724
2441.000000	98.718921
2440.000000	98.719466
2439.000000	98.720435
2438.000000	98.721751
2437.000000	98.723152
2436.000000	98.724411
2435.000000	98.725433
2434.000000	98.726115
2433.000000	98.726331
2432.000000	98.726136
2431.000000	98.725829
2430.000000	98.725731
2429.000000	98.726014
2428.000000	98.726794
2427.000000	98.728153
2426.000000	98.729906
2425.000000	98.731522
2424.000000	98.732523
2423.000000	98.732860
2422.000000	98.732797
2421.000000	98.732605
2420.000000	98.732485
2419.000000	98.732603
2418.000000	98.732969
2417.000000	98.733366
2416.000000	98.733616
2415.000000	98.733876
2414.000000	98.734459
2413.000000	98.735421
2412.000000	98.736486
2411.000000	98.737348
2410.000000	98.737898
2409.000000	98.738111
2408.000000	98.737970
2407.000000	98.737583
2406.000000	98.737234
2405.000000	98.737184
2404.000000	98.737470
2403.000000	98.737944
2402.000000	98.738412
2401.000000	98.738747
2400.000000	98.738920
2399.000000	98.739010
2398.000000	98.739167
2397.000000	98.739481
2396.000000	98.739883
2395.000000	98.740203
2394.000000	98.740351
2393.000000	98.740408
2392.000000	98.740506
2391.000000	98.740663
2390.000000	98.740800
2389.000000	98.740890
2388.000000	98.741020
2387.000000	98.741283
2386.000000	98.741672
2385.000000	98.742044
2384.000000	98.742218
2383.000000	98.742137
2382.000000	98.741905
2381.000000	98.741689
2380.000000	98.741577
2379.000000	98.741546
2378.000000	98.741515
2377.000000	98.741421
2376.000000	98.741294
2375.000000	98.741228
2374.000000	98.741286
2373.000000	98.741445
2372.000000	98.741619
2371.000000	98.741711
2370.000000	98.741641
2369.000000	98.741367
2368.000000	98.740926
2367.000000	98.740466
2366.000000	98.740168
2365.000000	98.740106
2364.000000	98.740182
2363.000000	98.740235
2362.000000	98.740185
2361.000000	98.739934
2360.000000	98.739391
2359.000000	98.738623
2358.000000	98.737850
2357.000000	98.737301
2356.000000	98.736929
2355.000000	98.736564
2354.000000	98.736211
2353.000000	98.735974
2352.000000	98.735799
2351.000000	98.735399
2350.000000	98.734783
2349.000000	98.734299
2348.000000	98.734212
2347.000000	98.734501
2346.000000	98.734740
2345.000000	98.734546
2344.000000	98.733771
2343.000000	98.732589
2342.000000	98.731341
2341.000000	98.730250
2340.000000	98.729523
2339.000000	98.729126
2338.000000	98.728858
2337.000000	98.728461
2336.000000	98.727854
2335.000000	98.727107
2334.000000	98.726362
2333.000000	98.725733
2332.000000	98.725275
2331.000000	98.724887
2330.000000	98.724482
2329.000000	98.724098
2328.000000	98.723837
2327.000000	98.723813
2326.000000	98.723897
2325.000000	98.723915
2324.000000	98.723714
2323.000000	98.723328
2322.000000	98.722906
2321.000000	98.722586
2320.000000	98.722421
2319.000000	98.722350
2318.000000	98.722290
2317.000000	98.722179
2316.000000	98.722022
2315.000000	98.721861
2314.000000	98.721749
2313.000000	98.721700
2312.000000	98.721684
2311.000000	98.721664
2310.000000	98.721612
2309.000000	98.721529
2308.000000	98.721429
2307.000000	98.721330
2306.000000	98.721240
2305.000000	98.721154
2304.000000	98.721073
2303.000000	98.721004
2302.000000	98.720955
2301.000000	98.720931
2300.000000	98.720936
2299.000000	98.720965
2298.000000	98.721007
2297.000000	98.721053
2296.000000	98.721096
2295.000000	98.721135
2294.000000	98.721171
2293.000000	98.721207
2292.000000	98.721239
2291.000000	98.721260
2290.000000	98.721257
2289.000000	98.721221
2288.000000	98.721153
2287.000000	98.721068
2286.000000	98.720987
2285.000000	98.720922
2284.000000	98.720842
2283.000000	98.720672
2282.000000	98.720359
2281.000000	98.719958
2280.000000	98.719610
2279.000000	98.719395
2278.000000	98.719294
2277.000000	98.719226
2276.000000	98.719128
2275.000000	98.718978
2274.000000	98.718795
2273.000000	98.718628
2272.000000	98.718493
2271.000000	98.718332
2270.000000	98.718069
2269.000000	98.717731
2268.000000	98.717400
2267.000000	98.717055
2266.000000	98.716583
2265.000000	98.715956
2264.000000	98.715345
2263.000000	98.715053
2262.000000	98.715332
2261.000000	98.716215
2260.000000	98.717321
2259.000000	98.717970
2258.000000	98.717767
2257.000000	98.717010
2256.000000	98.716420
2255.000000	98.716303
2254.000000	98.716299
2253.000000	98.715924
2252.000000	98.715041
2251.000000	98.713769
2250.000000	98.712296
2249.000000	98.710958
2248.000000	98.710136
2247.000000	98.709956
2246.000000	98.710235
2245.000000	98.710767
2244.000000	98.711396
2243.000000	98.711734
2242.000000	98.711203
2241.000000	98.709644
2240.000000	98.707692
2239.000000	98.706263
2238.000000	98.705692
2237.000000	98.705644
2236.000000	98.705652
2235.000000	98.705568
2234.000000	98.705556
2233.000000	98.705807
2232.000000	98.706271
2231.000000	98.706581
2230.000000	98.706406
2229.000000	98.705925
2228.000000	98.705723
2227.000000	98.706106
2226.000000	98.706748
2225.000000	98.707133
2224.000000	98.707060
2223.000000	98.706516
2222.000000	98.705379
2221.000000	98.703658
2220.000000	98.701855
2219.000000	98.700717
2218.000000	98.700594
2217.000000	98.701301
2216.000000	98.702484
2215.000000	98.703860
2214.000000	98.705226
2213.000000	98.706501
2212.000000	98.707686
2211.000000	98.708615
2210.000000	98.708899
2209.000000	98.708336
2208.000000	98.707285
2207.000000	98.706400
2206.000000	98.706045
2205.000000	98.706191
2204.000000	98.706742
2203.000000	98.707655
2202.000000	98.708719
2201.000000	98.709495
2200.000000	98.709620
2199.000000	98.709089
2198.000000	98.708241
2197.000000	98.707534
2196.000000	98.707272
2195.000000	98.707461
2194.000000	98.707847
2193.000000	98.708151
2192.000000	98.708263
2191.000000	98.708189
2190.000000	98.707940
2189.000000	98.707585
2188.000000	98.707368
2187.000000	98.707546
2186.000000	98.708113
2185.000000	98.708786
2184.000000	98.709274
2183.000000	98.709528
2182.000000	98.709678
2181.000000	98.709832
2180.000000	98.709967
2179.000000	98.709978
2178.000000	98.709840
2177.000000	98.709700
2176.000000	98.709775
2175.000000	98.710129
2174.000000	98.710623
2173.000000	98.711028
2172.000000	98.711240
2171.000000	98.711318
2170.000000	98.711338
2169.000000	98.711305
2168.000000	98.711241
2167.000000	98.711270
2166.000000	98.711497
2165.000000	98.711864
2164.000000	98.712180
2163.000000	98.712318
2162.000000	98.712306
2161.000000	98.712217
2160.000000	98.712047
2159.000000	98.711760
2158.000000	98.711399
2157.000000	98.711130
2156.000000	98.711138
2155.000000	98.711451
2154.000000	98.711881
2153.000000	98.712199
2152.000000	98.712372
2151.000000	98.712548
2150.000000	98.712819
2149.000000	98.713111
2148.000000	98.713329
2147.000000	98.713535
2146.000000	98.713866
2145.000000	98.714348
2144.000000	98.714842
2143.000000	98.715176
2142.000000	98.715293
2141.000000	98.715255
2140.000000	98.715195
2139.000000	98.715251
2138.000000	98.715496
2137.000000	98.715914
2136.000000	98.716399
2135.000000	98.716821
2134.000000	98.717118
2133.000000	98.717301
2132.000000	98.717413
2131.000000	98.717506
2130.000000	98.717628
2129.000000	98.717813
2128.000000	98.718059
2127.000000	98.718339
2126.000000	98.718634
2125.000000	98.718945
2124.000000	98.719266
2123.000000	98.719598
2122.000000	98.719972
2121.000000	98.720425
2120.000000	98.720945
2119.000000	98.721456
2118.000000	98.721891
2117.000000	98.722242
2116.000000	98.722548
2115.000000	98.722862
2114.000000	98.723220
2113.000000	98.723641
2112.000000	98.724137
2111.000000	98.724684
2110.000000	98.725198
2109.000000	98.725591
2108.000000	98.725856
2107.000000	98.726065
2106.000000	98.726284
2105.000000	98.726529
2104.000000	98.726798
2103.000000	98.727091
2102.000000	98.727389
2101.000000	98.727678
2100.000000	98.727990
2099.000000	98.728390
2098.000000	98.728917
2097.000000	98.729586
2096.000000	98.730387
2095.000000	98.731192
2094.000000	98.731709
2093.000000	98.731677
2092.000000	98.731143
2091.000000	98.730532
2090.000000	98.730330
2089.000000	98.730692
2088.000000	98.731425
2087.000000	98.732206
2086.000000	98.732805
2085.000000	98.733103
2084.000000	98.733062
2083.000000	98.732769
2082.000000	98.732402
2081.000000	98.732039
2080.000000	98.731589
2079.000000	98.731068
2078.000000	98.730860
2077.000000	98.731427
2076.000000	98.732687
2075.000000	98.733885
2074.000000	98.734384
2073.000000	98.734407
2072.000000	98.734690
2071.000000	98.735471
2070.000000	98.736123
2069.000000	98.735889
2068.000000	98.734589
2067.000000	98.732566
2066.000000	98.730380
2065.000000	98.728625
2064.000000	98.727711
2063.000000	98.727548
2062.000000	98.727544
2061.000000	98.727129
2060.000000	98.726271
2059.000000	98.725408
2058.000000	98.725013
2057.000000	98.725326
2056.000000	98.726245
2055.000000	98.727225
2054.000000	98.727492
2053.000000	98.726664
2052.000000	98.725139
2051.000000	98.723678
2050.000000	98.722584
2049.000000	98.721571
2048.000000	98.720456
2047.000000	98.719522
2046.000000	98.719015
2045.000000	98.718590
2044.000000	98.717635
2043.000000	98.716028
2042.000000	98.714298
2041.000000	98.713017
2040.000000	98.712169
2039.000000	98.711273
2038.000000	98.710002
2037.000000	98.708553
2036.000000	98.707375
2035.000000	98.706638
2034.000000	98.706105
2033.000000	98.705473
2032.000000	98.704712
2031.000000	98.703969
2030.000000	98.703262
2029.000000	98.702410
2028.000000	98.701269
2027.000000	98.699926
2026.000000	98.698628
2025.000000	98.697541
2024.000000	98.696583
2023.000000	98.695510
2022.000000	98.694139
2021.000000	98.692515
2020.000000	98.690913
2019.000000	98.689674
2018.000000	98.689012
2017.000000	98.688867
2016.000000	98.688865
2015.000000	98.688511
2014.000000	98.687563
2013.000000	98.686209
2012.000000	98.684917
2011.000000	98.684030
2010.000000	98.683541
2009.000000	98.683256
2008.000000	98.683024
2007.000000	98.682738
2006.000000	98.682251
2005.000000	98.681468
2004.000000	98.680460
2003.000000	98.679394
2002.000000	98.678319
2001.000000	98.677232
2000.000000	98.676251
1999.000000	98.675596
1998.000000	98.675357
1997.000000	98.675322
1996.000000	98.675112
1995.000000	98.674492
1994.000000	98.673551
1993.000000	98.672638
1992.000000	98.672116
1991.000000	98.672064
1990.000000	98.672251
1989.000000	98.672395
1988.000000	98.672417
1987.000000	98.672391
1986.000000	98.672281
1985.000000	98.671913
1984.000000	98.671200
1983.000000	98.670242
1982.000000	98.669177
1981.000000	98.668099
1980.000000	98.667112
1979.000000	98.666422
1978.000000	98.666203
1977.000000	98.666410
1976.000000	98.666778
1975.000000	98.667022
1974.000000	98.667003
1973.000000	98.666749
1972.000000	98.666398
1971.000000	98.666110
1970.000000	98.665936
1969.000000	98.665772
1968.000000	98.665495
1967.000000	98.665144
1966.000000	98.664900
1965.000000	98.664829
1964.000000	98.664772
1963.000000	98.664546
1962.000000	98.664144
1961.000000	98.663654
1960.000000	98.663108
1959.000000	98.662495
1958.000000	98.661859
1957.000000	98.661287
1956.000000	98.660855
1955.000000	98.660599
1954.000000	98.660456
1953.000000	98.660207
1952.000000	98.659641
1951.000000	98.658858
1950.000000	98.658270
1949.000000	98.658181
1948.000000	98.658391
1947.000000	98.658303
1946.000000	98.657544
1945.000000	98.656284
1944.000000	98.655075
1943.000000	98.654330
1942.000000	98.654011
1941.000000	98.653759
1940.000000	98.653253
1939.000000	98.652471
1938.000000	98.651671
1937.000000	98.651105
1936.000000	98.650684
1935.000000	98.650043
1934.000000	98.648978
1933.000000	98.647681
1932.000000	98.646597
1931.000000	98.645988
1930.000000	98.645650
1929.000000	98.645151
1928.000000	98.644120
1927.000000	98.642501
1926.000000	98.640510
1925.000000	98.638405
1924.000000	98.636305
1923.000000	98.634154
1922.000000	98.632058
1921.000000	98.630424
1920.000000	98.629500
1919.000000	98.629000
1918.000000	98.628194
1917.000000	98.626591
1916.000000	98.624314
1915.000000	98.621594
1914.000000	98.618681
1913.000000	98.616195
1912.000000	98.614883
1911.000000	98.614636
1910.000000	98.614120
1909.000000	98.612029
1908.000000	98.608356
1907.000000	98.604436
1906.000000	98.601647
1905.000000	98.600438
1904.000000	98.600376
1903.000000	98.600348
1902.000000	98.599341
1901.000000	98.597300
1900.000000	98.594759
1899.000000	98.592092
1898.000000	98.589292
1897.000000	98.586298
1896.000000	98.583176
1895.000000	98.579839
1894.000000	98.576438
1893.000000	98.573895
1892.000000	98.573141
1891.000000	98.573884
1890.000000	98.574508
1889.000000	98.573487
1888.000000	98.570809
1887.000000	98.567288
1886.000000	98.563654
1885.000000	98.560762
1884.000000	98.559345
1883.000000	98.559075
1882.000000	98.558842
1881.000000	98.558229
1880.000000	98.557682
1879.000000	98.557669
1878.000000	98.558222
1877.000000	98.558891
1876.000000	98.559009
1875.000000	98.557983
1874.000000	98.555861
1873.000000	98.553986
1872.000000	98.554122
1871.000000	98.556621
1870.000000	98.559681
1869.000000	98.560594
1868.000000	98.558949
1867.000000	98.557448
1866.000000	98.558458
1865.000000	98.561857
1864.000000	98.565737
1863.000000	98.568088
1862.000000	98.568382
1861.000000	98.567878
1860.000000	98.568117
1859.000000	98.569571
1858.000000	98.572237
1857.000000	98.576458
1856.000000	98.581810
1855.000000	98.586193
1854.000000	98.587635
1853.000000	98.587037
1852.000000	98.586799
1851.000000	98.587749
1850.000000	98.589096
1849.000000	98.590318
1848.000000	98.591919
1847.000000	98.594327
1846.000000	98.597716
1845.000000	98.602589
1844.000000	98.608451
1843.000000	98.613157
1842.000000	98.615272
1841.000000	98.615214
1840.000000	98.613939
1839.000000	98.611901
1838.000000	98.608964
1837.000000	98.605703
1836.000000	98.603784
1835.000000	98.603995
1834.000000	98.605306
1833.000000	98.606213
1832.000000	98.606169
1831.000000	98.606171
1830.000000	98.607238
1829.000000	98.608781
1828.000000	98.609786
1827.000000	98.609770
1826.000000	98.609060
1825.000000	98.608503
1824.000000	98.608875
1823.000000	98.610325
1822.000000	98.612115
1821.000000	98.613456
1820.000000	98.614157
1819.000000	98.614321
1818.000000	98.613526
1817.000000	98.611636
1816.000000	98.610086
1815.000000	98.610315
1814.000000	98.611908
1813.000000	98.612910
1812.000000	98.612048
1811.000000	98.609737
1810.000000	98.606585
1809.000000	98.603290
1808.000000	98.601297
1807.000000	98.601337
1806.000000	98.602287
1805.000000	98.602598
1804.000000	98.602406
1803.000000	98.602719
1802.000000	98.603971
1801.000000	98.605630
1800.000000	98.607500
1799.000000	98.609870
1798.000000	98.612064
1797.000000	98.613282
1796.000000	98.613801
1795.000000	98.613959
1794.000000	98.613436
1793.000000	98.611679
1792.000000	98.609102
1791.000000	98.607490
1790.000000	98.607855
1789.000000	98.609471
1788.000000	98.611089
1787.000000	98.611510
1786.000000	98.609867
1785.000000	98.606950
1784.000000	98.605563
1783.000000	98.607162
1782.000000	98.611496
1781.000000	98.617396
1780.000000	98.623080
1779.000000	98.627119
1778.000000	98.628834
1777.000000	98.629277
1776.000000	98.629607
1775.000000	98.629411
1774.000000	98.628519
1773.000000	98.629039
1772.000000	98.632498
1771.000000	98.638259
1770.000000	98.644141
1769.000000	98.647945
1768.000000	98.650413
1767.000000	98.653892
1766.000000	98.658777
1765.000000	98.662842
1764.000000	98.664610
1763.000000	98.665047
1762.000000	98.665851
1761.000000	98.667230
1760.000000	98.669950
1759.000000	98.674966
1758.000000	98.681983
1757.000000	98.690101
1756.000000	98.697899
1755.000000	98.705556
1754.000000	98.713549
1753.000000	98.721255
1752.000000	98.728258
1751.000000	98.735042
1750.000000	98.740628
1749.000000	98.742771
1748.000000	98.741427
1747.000000	98.739486
1746.000000	98.739912
1745.000000	98.741331
1744.000000	98.740585
1743.000000	98.738057
1742.000000	98.736551
1741.000000	98.736096
1740.000000	98.733548
1739.000000	98.726753
1738.000000	98.717296
1737.000000	98.706679
1736.000000	98.695486
1735.000000	98.688183
1734.000000	98.687510
1733.000000	98.688023
1732.000000	98.684887
1731.000000	98.677867
1730.000000	98.669108
1729.000000	98.661228
1728.000000	98.655470
1727.000000	98.651659
1726.000000	98.649342
1725.000000	98.647148
1724.000000	98.644080
1723.000000	98.640801
1722.000000	98.638141
1721.000000	98.636015
1720.000000	98.633815
1719.000000	98.631544
1718.000000	98.627036
1717.000000	98.616779
1716.000000	98.605201
1715.000000	98.599001
1714.000000	98.598095
1713.000000	98.598779
1712.000000	98.598647
1711.000000	98.597504
1710.000000	98.596387
1709.000000	98.596032
1708.000000	98.595721
1707.000000	98.594301
1706.000000	98.591258
1705.000000	98.587409
1704.000000	98.584627
1703.000000	98.582779
1702.000000	98.580261
1701.000000	98.577467
1700.000000	98.574884
1699.000000	98.572551
1698.000000	98.569305
1697.000000	98.563694
1696.000000	98.556630
1695.000000	98.550514
1694.000000	98.546210
1693.000000	98.542341
1692.000000	98.537798
1691.000000	98.532952
1690.000000	98.529147
1689.000000	98.527304
1688.000000	98.526488
1687.000000	98.524761
1686.000000	98.521107
1685.000000	98.517008
1684.000000	98.513886
1683.000000	98.511021
1682.000000	98.507898
1681.000000	98.504274
1680.000000	98.499993
1679.000000	98.495404
1678.000000	98.491002
1677.000000	98.487160
1676.000000	98.484353
1675.000000	98.482384
1674.000000	98.480516
1673.000000	98.477902
1672.000000	98.474137
1671.000000	98.469857
1670.000000	98.466138
1669.000000	98.463361
1668.000000	98.461203
1667.000000	98.459483
1666.000000	98.458211
1665.000000	98.456961
1664.000000	98.455300
1663.000000	98.452509
1662.000000	98.448213
1661.000000	98.443674
1660.000000	98.439722
1659.000000	98.436080
1658.000000	98.432727
1657.000000	98.429865
1656.000000	98.426734
1655.000000	98.423713
1654.000000	98.425560
1653.000000	98.430071
1652.000000	98.430748
1651.000000	98.429732
1650.000000	98.428417
1649.000000	98.425913
1648.000000	98.422259
1647.000000	98.417720
1646.000000	98.412938
1645.000000	98.409372
1644.000000	98.407183
1643.000000	98.405616
1642.000000	98.404726
1641.000000	98.405171
1640.000000	98.406832
1639.000000	98.408911
1638.000000	98.410152
1637.000000	98.410286
1636.000000	98.409048
1635.000000	98.405900
1634.000000	98.403848
1633.000000	98.404635
1632.000000	98.406859
1631.000000	98.407860
1630.000000	98.405888
1629.000000	98.401956
1628.000000	98.398948
1627.000000	98.398431
1626.000000	98.400286
1625.000000	98.404459
1624.000000	98.411341
1623.000000	98.418906
1622.000000	98.423585
1621.000000	98.425159
1620.000000	98.425585
1619.000000	98.426793
1618.000000	98.430207
1617.000000	98.435645
1616.000000	98.439999
1615.000000	98.441904
1614.000000	98.443088
1613.000000	98.444879
1612.000000	98.447607
1611.000000	98.451442
1610.000000	98.456951
1609.000000	98.464059
1608.000000	98.470897
1607.000000	98.475310
1606.000000	98.477673
1605.000000	98.479948
1604.000000	98.482782
1603.000000	98.485956
1602.000000	98.489799
1601.000000	98.494703
1600.000000	98.499986
1599.000000	98.504511
1598.000000	98.508063
1597.000000	98.511115
1596.000000	98.514071
1595.000000	98.517272
1594.000000	98.521309
1593.000000	98.526405
1592.000000	98.531531
1591.000000	98.535031
1590.000000	98.536371
1589.000000	98.536698
1588.000000	98.537484
1587.000000	98.539279
1586.000000	98.541887
1585.000000	98.545203
1584.000000	98.548940
1583.000000	98.552555
1582.000000	98.555731
1581.000000	98.558419
1580.000000	98.560530
1579.000000	98.562136
1578.000000	98.563964
1577.000000	98.567026
1576.000000	98.570926
1575.000000	98.573973
1574.000000	98.576110
1573.000000	98.578197
1572.000000	98.580511
1571.000000	98.583326
1570.000000	98.586851
1569.000000	98.590474
1568.000000	98.592998
1567.000000	98.593973
1566.000000	98.594070
1565.000000	98.594509
1564.000000	98.595686
1563.000000	98.597134
1562.000000	98.597978
1561.000000	98.598493
1560.000000	98.601216
1559.000000	98.606447
1558.000000	98.609128
1557.000000	98.609899
1556.000000	98.610687
1555.000000	98.611588
1554.000000	98.612896
1553.000000	98.614200
1552.000000	98.614774
1551.000000	98.614435
1550.000000	98.613575
1549.000000	98.612705
1548.000000	98.612134
1547.000000	98.611938
1546.000000	98.612435
1545.000000	98.613908
1544.000000	98.615842
1543.000000	98.617404
1542.000000	98.618414
1541.000000	98.619386
1540.000000	98.620543
1539.000000	98.621429
1538.000000	98.622278
1537.000000	98.623325
1536.000000	98.624565
1535.000000	98.626010
1534.000000	98.627538
1533.000000	98.628455
1532.000000	98.628697
1531.000000	98.629180
1530.000000	98.630365
1529.000000	98.632207
1528.000000	98.634414
1527.000000	98.636341
1526.000000	98.637392
1525.000000	98.637465
1524.000000	98.637021
1523.000000	98.636994
1522.000000	98.638324
1521.000000	98.640727
1520.000000	98.642963
1519.000000	98.644543
1518.000000	98.645818
1517.000000	98.646885
1516.000000	98.647357
1515.000000	98.647276
1514.000000	98.647288
1513.000000	98.647938
1512.000000	98.649557
1511.000000	98.652133
1510.000000	98.654925
1509.000000	98.657005
1508.000000	98.658133
1507.000000	98.658973
1506.000000	98.659798
1505.000000	98.661334
1504.000000	98.663124
1503.000000	98.664441
1502.000000	98.665394
1501.000000	98.666405
1500.000000	98.668044
1499.000000	98.670818
1498.000000	98.674642
1497.000000	98.677711
1496.000000	98.678206
1495.000000	98.676445
1494.000000	98.673872
1493.000000	98.671323
1492.000000	98.669229
1491.000000	98.668221
1490.000000	98.668439
1489.000000	98.668867
1488.000000	98.668712
1487.000000	98.667904
1486.000000	98.666636
1485.000000	98.665994
1484.000000	98.666835
1483.000000	98.668904
1482.000000	98.671184
1481.000000	98.672499
1480.000000	98.672388
1479.000000	98.671126
1478.000000	98.669474
1477.000000	98.668460
1476.000000	98.668877
1475.000000	98.670195
1474.000000	98.670947
1473.000000	98.670138
1472.000000	98.668054
1471.000000	98.665945
1470.000000	98.664232
1469.000000	98.662574
1468.000000	98.661111
1467.000000	98.660278
1466.000000	98.660030
1465.000000	98.659679
1464.000000	98.658630
1463.000000	98.657313
1462.000000	98.656141
1461.000000	98.655035
1460.000000	98.653989
1459.000000	98.653378
1458.000000	98.653422
1457.000000	98.652888
1456.000000	98.651048
1455.000000	98.649554
1454.000000	98.649420
1453.000000	98.650132
1452.000000	98.650831
1451.000000	98.651129
1450.000000	98.651180
1449.000000	98.650962
1448.000000	98.650528
1447.000000	98.650129
1446.000000	98.649972
1445.000000	98.649592
1444.000000	98.648378
1443.000000	98.646945
1442.000000	98.646363
1441.000000	98.646533
1440.000000	98.646012
1439.000000	98.643911
1438.000000	98.641031
1437.000000	98.639056
1436.000000	98.638326
1435.000000	98.638068
1434.000000	98.637638
1433.000000	98.636776
1432.000000	98.635865
1431.000000	98.635692
1430.000000	98.636503
1429.000000	98.637229
1428.000000	98.636758
1427.000000	98.634960
1426.000000	98.633017
1425.000000	98.632807
1424.000000	98.635125
1423.000000	98.639327
1422.000000	98.643781
1421.000000	98.646724
1420.000000	98.646988
1419.000000	98.644992
1418.000000	98.642936
1417.000000	98.642655
1416.000000	98.644042
1415.000000	98.646073
1414.000000	98.647971
1413.000000	98.649651
1412.000000	98.651826
1411.000000	98.655364
1410.000000	98.659733
1409.000000	98.662632
1408.000000	98.662591
1407.000000	98.660552
1406.000000	98.658939
1405.000000	98.659371
1404.000000	98.661413
1403.000000	98.664202
1402.000000	98.667293
1401.000000	98.670169
1400.000000	98.672258
1399.000000	98.673666
1398.000000	98.675741
1397.000000	98.679872
1396.000000	98.686061
1395.000000	98.692474
1394.000000	98.697126
1393.000000	98.699845
1392.000000	98.701787
1391.000000	98.703979
1390.000000	98.706381
1389.000000	98.708089
1388.000000	98.708590
1387.000000	98.708366
1386.000000	98.708153
1385.000000	98.708067
1384.000000	98.707795
1383.000000	98.707533
1382.000000	98.707711
1381.000000	98.708398
1380.000000	98.709562
1379.000000	98.711110
1378.000000	98.712435
1377.000000	98.712578
1376.000000	98.711443
1375.000000	98.710472
1374.000000	98.711604
1373.000000	98.715187
1372.000000	98.719769
1371.000000	98.723516
1370.000000	98.725472
1369.000000	98.725682
1368.000000	98.724857
1367.000000	98.724199
1366.000000	98.724381
1365.000000	98.724792
1364.000000	98.724596
1363.000000	98.724351
1362.000000	98.725712
1361.000000	98.729131
1360.000000	98.732913
1359.000000	98.735158
1358.000000	98.735810
1357.000000	98.736226
1356.000000	98.737357
1355.000000	98.738908
1354.000000	98.740105
1353.000000	98.740485
1352.000000	98.740201
1351.000000	98.739406
1350.000000	98.738090
1349.000000	98.736490
1348.000000	98.735063
1347.000000	98.734377
1346.000000	98.734741
1345.000000	98.735950
1344.000000	98.737610
1343.000000	98.739693
1342.000000	98.742262
1341.000000	98.744418
1340.000000	98.744214
1339.000000	98.740849
1338.000000	98.736532
1337.000000	98.734347
1336.000000	98.734825
1335.000000	98.736155
1334.000000	98.736970
1333.000000	98.737847
1332.000000	98.739930
1331.000000	98.742653
1330.000000	98.743812
1329.000000	98.741975
1328.000000	98.738277
1327.000000	98.735395
1326.000000	98.735037
1325.000000	98.736787
1324.000000	98.739265
1323.000000	98.741851
1322.000000	98.744412
1321.000000	98.745874
1320.000000	98.744609
1319.000000	98.740745
1318.000000	98.736863
1317.000000	98.735320
1316.000000	98.735912
1315.000000	98.737038
1314.000000	98.737843
1313.000000	98.738305
1312.000000	98.738334
1311.000000	98.737977
1310.000000	98.737994
1309.000000	98.739051
1308.000000	98.740664
1307.000000	98.741599
1306.000000	98.741232
1305.000000	98.739860
1304.000000	98.737957
1303.000000	98.736126
1302.000000	98.735229
1301.000000	98.735548
1300.000000	98.736087
1299.000000	98.735741
1298.000000	98.734882
1297.000000	98.734695
1296.000000	98.735057
1295.000000	98.734453
1294.000000	98.732385
1293.000000	98.730375
1292.000000	98.729749
1291.000000	98.729490
1290.000000	98.727453
1289.000000	98.723170
1288.000000	98.718451
1287.000000	98.715420
1286.000000	98.714844
1285.000000	98.716210
1284.000000	98.718236
1283.000000	98.718997
1282.000000	98.716486
1281.000000	98.709912
1280.000000	98.700366
1279.000000	98.690167
1278.000000	98.681808
1277.000000	98.677301
1276.000000	98.677582
1275.000000	98.681691
1274.000000	98.686948
1273.000000	98.690694
1272.000000	98.691993
1271.000000	98.691722
1270.000000	98.691400
1269.000000	98.691925
1268.000000	98.692743
1267.000000	98.692046
1266.000000	98.688659
1265.000000	98.684080
1264.000000	98.681601
1263.000000	98.682425
1262.000000	98.683525
1261.000000	98.680889
1260.000000	98.674368
1259.000000	98.667709
1258.000000	98.663856
1257.000000	98.661827
1256.000000	98.658619
1255.000000	98.652611
1254.000000	98.644462
1253.000000	98.635929
1252.000000	98.628512
1251.000000	98.622349
1250.000000	98.615687
1249.000000	98.606273
1248.000000	98.594036
1247.000000	98.581851
1246.000000	98.572976
1245.000000	98.567843
1244.000000	98.563665
1243.000000	98.556762
1242.000000	98.545463
1241.000000	98.531735
1240.000000	98.519899
1239.000000	98.512238
1238.000000	98.505412
1237.000000	98.492901
1236.000000	98.472060
1235.000000	98.447705
1234.000000	98.427920
1233.000000	98.416827
1232.000000	98.411887
1231.000000	98.406983
1230.000000	98.397044
1229.000000	98.380614
1228.000000	98.359255
1227.000000	98.334618
1226.000000	98.306198
1225.000000	98.272461
1224.000000	98.233667
1223.000000	98.192135
1222.000000	98.149925
1221.000000	98.108030
1220.000000	98.067598
1219.000000	98.029225
1218.000000	97.990525
1217.000000	97.947320
1216.000000	97.898326
1215.000000	97.846133
1214.000000	97.792666
1213.000000	97.736732
1212.000000	97.677670
1211.000000	97.618123
1210.000000	97.560825
1209.000000	97.505454
1208.000000	97.450887
1207.000000	97.397416
1206.000000	97.344240
1205.000000	97.288146
1204.000000	97.227925
1203.000000	97.167593
1202.000000	97.112124
1201.000000	97.061796
1200.000000	97.013046
1199.000000	96.962504
1198.000000	96.908050
1197.000000	96.849173
1196.000000	96.789467
1195.000000	96.735955
1194.000000	96.691964
1193.000000	96.652219
1192.000000	96.607949
1191.000000	96.555187
1190.000000	96.495778
1189.000000	96.432811
1188.000000	96.368577
1187.000000	96.305264
1186.000000	96.243647
1185.000000	96.181534
1184.000000	96.116256
1183.000000	96.048120
1182.000000	95.979477
1181.000000	95.911599
1180.000000	95.844286
1179.000000	95.776952
1178.000000	95.708131
1177.000000	95.635579
1176.000000	95.558742
1175.000000	95.479364
1174.000000	95.398207
1173.000000	95.313772
1172.000000	95.226307
1171.000000	95.140235
1170.000000	95.059705
1169.000000	94.983758
1168.000000	94.908580
1167.000000	94.833234
1166.000000	94.762098
1165.000000	94.704078
1164.000000	94.670228
1163.000000	94.667640
1162.000000	94.691948
1161.000000	94.727743
1160.000000	94.758906
1159.000000	94.777220
1158.000000	94.780974
1157.000000	94.769746
1156.000000	94.743096
1155.000000	94.701617
1154.000000	94.646957
1153.000000	94.582595
1152.000000	94.515521
1151.000000	94.453647
1150.000000	94.398906
1149.000000	94.345429
1148.000000	94.286782
1147.000000	94.222776
1146.000000	94.157770
1145.000000	94.095091
1144.000000	94.034856
1143.000000	93.974647
1142.000000	93.910514
1141.000000	93.839617
1140.000000	93.763406
1139.000000	93.686674
1138.000000	93.613399
1137.000000	93.545429
1136.000000	93.483553
1135.000000	93.425220
1134.000000	93.362319
1133.000000	93.287544
1132.000000	93.203754
1131.000000	93.121799
1130.000000	93.048039
1129.000000	92.979115
1128.000000	92.909517
1127.000000	92.837745
1126.000000	92.763609
1125.000000	92.686157
1124.000000	92.606851
1123.000000	92.529378
1122.000000	92.454188
1121.000000	92.378229
1120.000000	92.300999
1119.000000	92.224860
1118.000000	92.148910
1117.000000	92.069969
1116.000000	91.990506
1115.000000	91.917301
1114.000000	91.850592
1113.000000	91.783453
1112.000000	91.714171
1111.000000	91.649358
1110.000000	91.591091
1109.000000	91.530656
1108.000000	91.460345
1107.000000	91.383701
1106.000000	91.309231
1105.000000	91.241294
1104.000000	91.181072
1103.000000	91.128267
1102.000000	91.077579
1101.000000	91.021163
1100.000000	90.958842
1099.000000	90.898118
1098.000000	90.841093
1097.000000	90.780933
1096.000000	90.714907
1095.000000	90.651021
1094.000000	90.596176
1093.000000	90.546822
1092.000000	90.496903
1091.000000	90.446620
1090.000000	90.397734
1089.000000	90.348347
1088.000000	90.297969
1087.000000	90.250404
1086.000000	90.206824
1085.000000	90.163492
1084.000000	90.120374
1083.000000	90.083494
1082.000000	90.054092
1081.000000	90.023974
1080.000000	89.986626
1079.000000	89.944913
1078.000000	89.903318
1077.000000	89.860965
1076.000000	89.817065
1075.000000	89.774100
1074.000000	89.729550
1073.000000	89.672754
1072.000000	89.596381
1071.000000	89.504422
1070.000000	89.403751
1069.000000	89.294174
1068.000000	89.171934
1067.000000	89.036780
1066.000000	88.890871
1065.000000	88.737031
1064.000000	88.582513
1063.000000	88.437779
1062.000000	88.306843
1061.000000	88.184838
1060.000000	88.068070
1059.000000	87.959112
1058.000000	87.859263
1057.000000	87.763996
1056.000000	87.668396
1055.000000	87.568592
1054.000000	87.456161
1053.000000	87.321949
1052.000000	87.169658
1051.000000	87.015284
1050.000000	86.867614
1049.000000	86.720116
1048.000000	86.566543
1047.000000	86.410604
1046.000000	86.254888
1045.000000	86.093904
1044.000000	85.924369
1043.000000	85.751653
1042.000000	85.580760
1041.000000	85.410356
1040.000000	85.240340
1039.000000	85.075889
1038.000000	84.919500
1037.000000	84.768241
1036.000000	84.622806
1035.000000	84.490178
1034.000000	84.374068
1033.000000	84.271567
1032.000000	84.180711
1031.000000	84.101503
1030.000000	84.028999
1029.000000	83.956771
1028.000000	83.887768
1027.000000	83.829962
1026.000000	83.781343
1025.000000	83.732005
1024.000000	83.680638
1023.000000	83.634817
1022.000000	83.595243
1021.000000	83.554931
1020.000000	83.514043
1019.000000	83.479108
1018.000000	83.446592
1017.000000	83.404616
1016.000000	83.353592
1015.000000	83.308082
1014.000000	83.274650
1013.000000	83.244374
1012.000000	83.210905
1011.000000	83.179559
1010.000000	83.153988
1009.000000	83.130011
1008.000000	83.107809
1007.000000	83.094920
1006.000000	83.091778
1005.000000	83.088497
1004.000000	83.080713
1003.000000	83.075049
1002.000000	83.075131
1001.000000	83.076688
1000.000000	83.080273
999.000000	83.093730
998.000000	83.117142
997.000000	83.139951
996.000000	83.158337
995.000000	83.181501
994.000000	83.215280
993.000000	83.253239
992.000000	83.289657
991.000000	83.328743
990.000000	83.375253
989.000000	83.427667
988.000000	83.485527
987.000000	83.552414
986.000000	83.627782
985.000000	83.706943
984.000000	83.792183
983.000000	83.892391
982.000000	84.009095
981.000000	84.134374
980.000000	84.264360
979.000000	84.402433
978.000000	84.547508
977.000000	84.693183
976.000000	84.841433
975.000000	85.003403
974.000000	85.182616
973.000000	85.369737
972.000000	85.557378
971.000000	85.747420
970.000000	85.939862
969.000000	86.127571
968.000000	86.307594
967.000000	86.486268
966.000000	86.667272
965.000000	86.844603
964.000000	87.013041
963.000000	87.176634
962.000000	87.341169
961.000000	87.505630
960.000000	87.665909
959.000000	87.820447
958.000000	87.968631
957.000000	88.109715
956.000000	88.245775
955.000000	88.379474
954.000000	88.507337
953.000000	88.622492
952.000000	88.725761
951.000000	88.826711
950.000000	88.931624
949.000000	89.037107
948.000000	89.137093
947.000000	89.228727
946.000000	89.310043
945.000000	89.379813
944.000000	89.441883
943.000000	89.502562
942.000000	89.562112
941.000000	89.616198
940.000000	89.666830
939.000000	89.722902
938.000000	89.786962
937.000000	89.850081
936.000000	89.904034
935.000000	89.951803
934.000000	90.002543
933.000000	90.061902
932.000000	90.129792
931.000000	90.201350
930.000000	90.267601
929.000000	90.321633
928.000000	90.367039
927.000000	90.415312
926.000000	90.473105
925.000000	90.536914
924.000000	90.600237
923.000000	90.659009
922.000000	90.709367
921.000000	90.748090
920.000000	90.778083
919.000000	90.807739
918.000000	90.842920
917.000000	90.884186
916.000000	90.931465
915.000000	90.984793
914.000000	91.040687
913.000000	91.095805
912.000000	91.154851
911.000000	91.226988
910.000000	91.313960
909.000000	91.409749
908.000000	91.511805
907.000000	91.623025
906.000000	91.742158
905.000000	91.863412
904.000000	91.988073
903.000000	92.125616
902.000000	92.279078
901.000000	92.438568
900.000000	92.594007
899.000000	92.746412
898.000000	92.901380
897.000000	93.058363
896.000000	93.211779
895.000000	93.357542
894.000000	93.494173
893.000000	93.622175
892.000000	93.746310
891.000000	93.874054
890.000000	94.007172
889.000000	94.137786
888.000000	94.256488
887.000000	94.361761
886.000000	94.458473
885.000000	94.549744
884.000000	94.634526
883.000000	94.713215
882.000000	94.792345
881.000000	94.881042
880.000000	94.981388
879.000000	95.083104
878.000000	95.172038
877.000000	95.246588
876.000000	95.321760
875.000000	95.412646
874.000000	95.516963
873.000000	95.619251
872.000000	95.708880
871.000000	95.787109
870.000000	95.859510
869.000000	95.930431
868.000000	96.005269
867.000000	96.089998
866.000000	96.185271
865.000000	96.285504
864.000000	96.384855
863.000000	96.479486
862.000000	96.564314
861.000000	96.634852
860.000000	96.695252
859.000000	96.758880
858.000000	96.835619
857.000000	96.920703
856.000000	96.999692
855.000000	97.062611
854.000000	97.111003
853.000000	97.153496
852.000000	97.197278
851.000000	97.242835
850.000000	97.284908
849.000000	97.318850
848.000000	97.346224
847.000000	97.372337
846.000000	97.397925
845.000000	97.416428
844.000000	97.421464
843.000000	97.414309
842.000000	97.400962
841.000000	97.383136
840.000000	97.355746
839.000000	97.314168
838.000000	97.261773
837.000000	97.208305
836.000000	97.161004
835.000000	97.118708
834.000000	97.075775
833.000000	97.031206
832.000000	96.991081
831.000000	96.960709
830.000000	96.937936
829.000000	96.918460
828.000000	96.905226
827.000000	96.905819
826.000000	96.920676
825.000000	96.941675
824.000000	96.964300
823.000000	96.992453
822.000000	97.026441
821.000000	97.054048
820.000000	97.060266
819.000000	97.041985
818.000000	97.008582
817.000000	96.969863
816.000000	96.926399
815.000000	96.870623
814.000000	96.793947
813.000000	96.691035
812.000000	96.557680
811.000000	96.386450
810.000000	96.167156
809.000000	95.893646
808.000000	95.570053
807.000000	95.209298
806.000000	94.826155
805.000000	94.434136
804.000000	94.048222
803.000000	93.685047
802.000000	93.357826
801.000000	93.075050
800.000000	92.845390
799.000000	92.678616
798.000000	92.580438
797.000000	92.551041
796.000000	92.586568
795.000000	92.673871
794.000000	92.786421
793.000000	92.897372
792.000000	92.997731
791.000000	93.092001
790.000000	93.176059
789.000000	93.230794
788.000000	93.240437
787.000000	93.207065
786.000000	93.142104
785.000000	93.051768
784.000000	92.937553
783.000000	92.805981
782.000000	92.671242
781.000000	92.550215
780.000000	92.458299
779.000000	92.406813
778.000000	92.401113
777.000000	92.443047
776.000000	92.534365
775.000000	92.672005
774.000000	92.840194
773.000000	93.014339
772.000000	93.175020
771.000000	93.315136
770.000000	93.435780
769.000000	93.541228
768.000000	93.636150
767.000000	93.720090
766.000000	93.784522
765.000000	93.822473
764.000000	93.841709
763.000000	93.861286
762.000000	93.893586
761.000000	93.936472
760.000000	93.984397
759.000000	94.038524
758.000000	94.101395
757.000000	94.168525
756.000000	94.231693
755.000000	94.287990
754.000000	94.341921
753.000000	94.400536
752.000000	94.468504
751.000000	94.545125
750.000000	94.623645
749.000000	94.695521
748.000000	94.757576
747.000000	94.814368
746.000000	94.873456
745.000000	94.939691
744.000000	95.013701
743.000000	95.093774
742.000000	95.178931
741.000000	95.271183
740.000000	95.373698
739.000000	95.485471
738.000000	95.599678
737.000000	95.709012
736.000000	95.809900
735.000000	95.899642
734.000000	95.973945
733.000000	96.031012
732.000000	96.074912
731.000000	96.111419
730.000000	96.142953
729.000000	96.170469
728.000000	96.196669
727.000000	96.223411
726.000000	96.249761
725.000000	96.277251
724.000000	96.312710
723.000000	96.359895
722.000000	96.412433
721.000000	96.462344
720.000000	96.512270
719.000000	96.570646
718.000000	96.636512
717.000000	96.698714
716.000000	96.749968
715.000000	96.792771
714.000000	96.830553
713.000000	96.861168
712.000000	96.882250
711.000000	96.896450
710.000000	96.907122
709.000000	96.913004
708.000000	96.910800
707.000000	96.900354
706.000000	96.884137
705.000000	96.862635
704.000000	96.831164
703.000000	96.779627
702.000000	96.695739
701.000000	96.570617
700.000000	96.402074
699.000000	96.195058
698.000000	95.965255
697.000000	95.744828
696.000000	95.575981
695.000000	95.488408
694.000000	95.484095
693.000000	95.546615
692.000000	95.657169
691.000000	95.794576
690.000000	95.929910
689.000000	96.039899
688.000000	96.126966
687.000000	96.210825
686.000000	96.298497
685.000000	96.377849
684.000000	96.442071
683.000000	96.502699
682.000000	96.571357
681.000000	96.641302
680.000000	96.696514
679.000000	96.731686
678.000000	96.754965
677.000000	96.776431
676.000000	96.802119
675.000000	96.836669
674.000000	96.881391
673.000000	96.929496
672.000000	96.970742
671.000000	97.003061
670.000000	97.036507
669.000000	97.087071
668.000000	97.153517
667.000000	97.211457
666.000000	97.251188
665.000000	97.282159
664.000000	97.314652
663.000000	97.358093
662.000000	97.414323
661.000000	97.475421
660.000000	97.528463
659.000000	97.560782
658.000000	97.565615
657.000000	97.549316
656.000000	97.528789
655.000000	97.516610
654.000000	97.508615
653.000000	97.492576
652.000000	97.469184
651.000000	97.454766
650.000000	97.462604
649.000000	97.490782
648.000000	97.530296
647.000000	97.575337
646.000000	97.623194
645.000000	97.674106
644.000000	97.733975
643.000000	97.808779
642.000000	97.893100
641.000000	97.971506
640.000000	98.032416
639.000000	98.071066
638.000000	98.082377
637.000000	98.065872
636.000000	98.041444
635.000000	98.046828
634.000000	98.106047
633.000000	98.205534
632.000000	98.307660
631.000000	98.379721
630.000000	98.409289
629.000000	98.405054
628.000000	98.391545
627.000000	98.398659
626.000000	98.443110
625.000000	98.515452
624.000000	98.591213
623.000000	98.654847
622.000000	98.709202
621.000000	98.762951
620.000000	98.812274
619.000000	98.838345
618.000000	98.825329
617.000000	98.776902
616.000000	98.714543
615.000000	98.667123
614.000000	98.659309
613.000000	98.698673
612.000000	98.766418
611.000000	98.822761
610.000000	98.835261
609.000000	98.804099
608.000000	98.751768
607.000000	98.696461
606.000000	98.646046
605.000000	98.606530
604.000000	98.574102
603.000000	98.520456
602.000000	98.416549
601.000000	98.283439
600.000000	98.193864
599.000000	98.201217
598.000000	98.281941
597.000000	98.368694
596.000000	98.426831
595.000000	98.464983
594.000000	98.489034
593.000000	98.491791
592.000000	98.485591
591.000000	98.500899
590.000000	98.541781
589.000000	98.579891
588.000000	98.600940
587.000000	98.621205
586.000000	98.651097
585.000000	98.674647
584.000000	98.675151
583.000000	98.652449
582.000000	98.609430
581.000000	98.555681
580.000000	98.532117
579.000000	98.587741
578.000000	98.710945
577.000000	98.825863
576.000000	98.875151
575.000000	98.866212
574.000000	98.831569
573.000000	98.788403
572.000000	98.758613
571.000000	98.780555
570.000000	98.857175
569.000000	98.932440
568.000000	98.956429
567.000000	98.935988
566.000000	98.898752
565.000000	98.844981
564.000000	98.767988
563.000000	98.687510
562.000000	98.622281
561.000000	98.558652
560.000000	98.483421
559.000000	98.418659
558.000000	98.391999
557.000000	98.403217
556.000000	98.446967
555.000000	98.526311
554.000000	98.618478
553.000000	98.674815
552.000000	98.679136
551.000000	98.658079
550.000000	98.620351
